wavelength,amplitude
948.1,0.023
947.15,0.023
946.2,0.023
945.25,0.023
944.3,0.023
943.35,0.023
942.4,0.023
941.45,0.023
940.5,0.023
939.55,0.023
938.6,0.023
937.65,0.023
936.7,0.023
935.75,0.023
934.8,0.023
933.85,0.023
932.9,0.023
931.95,0.023
931.0,0.023
930.05,0.023
929.1,0.023
928.15,0.023
927.2,0.023
926.25,0.023
925.3,0.023
924.35,0.023
923.4,0.023
922.45,0.023
921.5,0.023
920.55,0.023
919.6,0.023
918.65,0.023
917.7,0.023
916.75,0.023
915.8,0.023
914.85,0.023
913.9,0.023
912.95,0.023
912.0,0.023
911.05,0.023
910.1,0.023
909.15,0.023
908.2,0.023
907.25,0.023
906.3,0.023
905.35,0.023
904.4,0.023
903.45,0.023
902.5,0.023
901.55,0.023
900.6,0.023
899.65,0.023
898.7,0.023
897.75,0.023
896.8,0.023
895.85,0.023
894.9,0.023
893.95,0.023
893.0,0.023
892.05,0.023
891.1,0.023
890.15,0.023
889.2,0.023
888.25,0.023
887.3,0.023
886.35,0.023
885.4,0.023
884.45,0.023
883.5,0.023
882.55,0.024
881.6,0.024
880.65,0.027
879.7,0.030
878.75,0.033
877.8,0.034
876.85,0.031
875.9,0.029
874.95,0.024
874.0,0.023
873.05,0.023
872.1,0.023
871.15,0.023
870.2,0.023
869.25,0.023
868.3,0.023
867.35,0.023
866.4,0.023
865.45,0.023
864.5,0.023
863.55,0.023
862.6,0.023
861.65,0.023
860.7,0.023
859.75,0.023
858.8,0.023
857.85,0.023
856.9,0.023
855.95,0.023
855.0,0.023
854.05,0.023
853.1,0.023
852.15,0.023
851.2,0.023
850.25,0.023
849.3,0.023
848.35,0.023
847.4,0.023
846.45,0.023
845.5,0.023
844.55,0.023
843.6,0.023
842.65,0.023
841.7,0.023
840.75,0.023
839.8,0.023
838.85,0.023
837.9,0.023
836.95,0.023
836.0,0.023
835.05,0.023
834.1,0.023
833.15,0.023
832.2,0.023
831.25,0.023
830.3,0.023
829.35,0.023
828.4,0.023
827.45,0.023
826.5,0.023
825.55,0.023
824.6,0.023
823.65,0.023
822.7,0.023
821.75,0.023
820.8,0.023
819.85,0.023
818.9,0.023
817.95,0.023
817.0,0.023
816.05,0.023
815.1,0.023
814.15,0.023
813.2,0.023
812.25,0.023
811.3,0.023
810.35,0.023
809.4,0.023
808.45,0.023
807.5,0.023
806.55,0.023
805.6,0.023
804.65,0.023
803.7,0.023
802.75,0.023
801.8,0.022
800.85,0.022
799.9,0.022
798.95,0.022
798.0,0.022
797.05,0.022
796.1,0.022
795.15,0.022
794.2,0.022
793.25,0.022
792.3,0.021
791.35,0.021
790.4,0.021
789.45,0.021
788.5,0.021
787.55,0.021
786.6,0.021
785.65,0.021
784.7,0.021
783.75,0.021
782.8,0.020
781.85,0.020
780.9,0.020
779.95,0.020
779.0,0.020
778.05,0.020
777.1,0.020
776.15,0.020
775.2,0.020
774.25,0.020
773.3,0.020
772.35,0.020
771.4,0.019
770.45,0.019
769.5,0.019
768.55,0.019
767.6,0.020
766.65,0.019
765.7,0.020
764.75,0.020
763.8,0.020
762.85,0.020
761.9,0.020
760.95,0.020
760.0,0.020
759.05,0.020
758.1,0.020
757.15,0.020
756.2,0.020
755.25,0.020
754.3,0.020
753.35,0.020
752.4,0.020
751.45,0.020
750.5,0.020
749.55,0.020
748.6,0.020
747.65,0.020
746.7,0.020
745.75,0.020
744.8,0.019
743.85,0.020
742.9,0.020
741.95,0.019
741.0,0.019
740.05,0.019
739.1,0.019
738.15,0.019
737.2,0.019
736.25,0.020
735.3,0.019
734.35,0.019
733.4,0.018
732.45,0.019
731.5,0.018
730.55,0.018
729.6,0.018
728.65,0.018
727.7,0.018
726.75,0.018
725.8,0.017
724.85,0.017
723.9,0.017
722.95,0.017
722.0,0.016
721.05,0.016
720.1,0.016
719.15,0.017
718.2,0.016
717.25,0.016
716.3,0.015
715.35,0.015
714.4,0.015
713.45,0.015
712.5,0.013
711.55,0.013
710.6,0.013
709.65,0.014
708.7,0.013
707.75,0.013
706.8,0.013
705.85,0.013
704.9,0.012
703.95,0.012
703.0,0.012
702.05,0.012
701.1,0.012
700.15,0.012
699.2,0.012
698.25,0.012
697.3,0.012
696.35,0.011
695.4,0.011
694.45,0.011
693.5,0.011
692.55,0.012
691.6,0.012
690.65,0.013
689.7,0.014
688.75,0.014
687.8,0.014
686.85,0.014
685.9,0.014
684.95,0.016
684.0,0.016
683.05,0.018
682.1,0.019
681.15,0.021
680.2,0.022
679.25,0.022
678.3,0.025
677.35,0.026
676.4,0.027
675.45,0.027
674.5,0.028
673.55,0.029
672.6,0.029
671.65,0.029
670.7,0.030
669.75,0.030
668.8,0.032
667.85,0.033
666.9,0.036
665.95,0.037
665.0,0.041
664.05,0.043
663.1,0.048
662.15,0.054
661.2,0.062
660.25,0.072
659.3,0.087
658.35,0.111
657.4,0.143
656.45,0.168
655.5,0.193
654.55,0.208
653.6,0.221
652.65,0.227
651.7,0.231
650.75,0.235
649.8,0.240
648.85,0.245
647.9,0.251
646.95,0.257
646.0,0.262
645.05,0.267
644.1,0.277
643.15,0.285
642.2,0.299
641.25,0.318
640.3,0.345
639.35,0.389
638.4,0.449
637.45,0.532
636.5,0.644
635.55,0.742
634.6,0.829
633.65,0.887
632.7,0.907
631.75,0.910
630.8,0.887
629.85,0.842
628.9,0.761
627.95,0.669
627.0,0.557
626.05,0.468
625.1,0.417
624.15,0.380
623.2,0.366
622.25,0.366
621.3,0.390
620.35,0.413
619.4,0.444
618.45,0.468
617.5,0.475
616.55,0.478
615.6,0.482
614.65,0.489
613.7,0.518
612.75,0.544
611.8,0.569
610.85,0.588
609.9,0.588
608.95,0.586
608.0,0.593
607.05,0.599
606.1,0.618
605.15,0.635
604.2,0.641
603.25,0.646
602.3,0.642
601.35,0.634
600.4,0.628
599.45,0.619
598.5,0.616
597.55,0.614
596.6,0.608
595.65,0.602
594.7,0.575
593.75,0.546
592.8,0.496
591.85,0.442
590.9,0.387
589.95,0.332
589.0,0.301
588.05,0.277
587.1,0.274
586.15,0.277
585.2,0.279
584.25,0.288
583.3,0.295
582.35,0.305
581.4,0.313
580.45,0.325
579.5,0.337
578.55,0.350
577.6,0.364
576.65,0.379
575.7,0.396
574.75,0.413
573.8,0.433
572.85,0.456
571.9,0.482
570.95,0.513
570.0,0.539
569.05,0.569
568.1,0.599
567.15,0.628
566.2,0.658
565.25,0.686
564.3,0.729
563.35,0.778
562.4,0.832
561.45,0.898
560.5,0.953
559.55,0.984
558.6,1.000
557.65,0.983
556.7,0.941
555.75,0.897
554.8,0.839
553.85,0.761
552.9,0.686
551.95,0.625
551.0,0.573
550.05,0.548
549.1,0.529
548.15,0.515
547.2,0.502
546.25,0.495
545.3,0.490
544.35,0.487
543.4,0.483
542.45,0.483
541.5,0.482
540.55,0.483
539.6,0.483
538.65,0.484
537.7,0.485
536.75,0.486
535.8,0.487
534.85,0.490
533.9,0.490
532.95,0.492
532.0,0.493
531.05,0.496
530.1,0.498
529.15,0.501
528.2,0.502
527.25,0.504
526.3,0.504
525.35,0.504
524.4,0.505
523.45,0.504
522.5,0.503
521.55,0.502
520.6,0.502
519.65,0.504
518.7,0.505
517.75,0.509
516.8,0.514
515.85,0.523
514.9,0.538
513.95,0.552
513.0,0.570
512.05,0.584
511.1,0.602
510.15,0.615
509.2,0.630
508.25,0.642
507.3,0.656
506.35,0.665
505.4,0.678
504.45,0.686
503.5,0.697
502.55,0.703
501.6,0.708
500.65,0.710
499.7,0.711
498.75,0.707
497.8,0.701
496.85,0.692
495.9,0.680
494.95,0.668
494.0,0.654
493.05,0.642
492.1,0.631
491.15,0.620
490.2,0.609
489.25,0.598
488.3,0.583
487.35,0.570
486.4,0.554
485.45,0.538
484.5,0.519
483.55,0.499
482.6,0.476
481.65,0.451
480.7,0.420
479.75,0.389
478.8,0.355
477.85,0.323
476.9,0.290
475.95,0.266
475.0,0.251
474.05,0.241
473.1,0.238
472.15,0.236
471.2,0.236
470.25,0.236
469.3,0.235
468.35,0.234
467.4,0.233
466.45,0.232
465.5,0.231
464.55,0.230
463.6,0.229
462.65,0.228
461.7,0.227
460.75,0.225
459.8,0.224
458.85,0.222
457.9,0.221
456.95,0.221
456.0,0.222
455.05,0.222
454.1,0.224
453.15,0.227
452.2,0.235
451.25,0.240
450.3,0.248
449.35,0.254
448.4,0.273
447.45,0.293
446.5,0.288
445.55,0.277
444.6,0.247
443.65,0.217
442.7,0.202
441.75,0.188
440.8,0.178
439.85,0.168
438.9,0.161
437.95,0.153
437.0,0.148
436.05,0.143
435.1,0.138
434.15,0.133
433.2,0.129
432.25,0.124
431.3,0.120
430.35,0.116
429.4,0.112
428.45,0.107
427.5,0.104
426.55,0.100
425.6,0.098
424.65,0.096
423.7,0.095
422.75,0.095
421.8,0.100
420.85,0.106
419.9,0.116
418.95,0.131
418.0,0.146
417.05,0.160
416.1,0.168
415.15,0.165
414.2,0.152
413.25,0.134
412.3,0.116
411.35,0.096
410.4,0.077
409.45,0.062
408.5,0.046
407.55,0.038
406.6,0.036
405.65,0.032
404.7,0.031
403.75,0.029
402.8,0.029
401.85,0.028
400.9,0.027
399.95,0.026
399.0,0.025
398.05,0.024
397.1,0.023
396.15,0.023
395.2,0.023
394.25,0.022
393.3,0.022
392.35,0.021
391.4,0.021
390.45,0.021
389.5,0.021
388.55,0.021
387.6,0.021
386.65,0.021
385.7,0.021
384.75,0.021
383.8,0.021
382.85,0.021
381.9,0.021
380.95,0.021
380.0,0.021
