wavelength,amplitude
960.45,0.047
959.5,0.047
958.55,0.047
957.6,0.047
956.65,0.047
955.7,0.047
954.75,0.047
953.8,0.047
952.85,0.047
951.9,0.047
950.95,0.047
950.0,0.047
949.05,0.047
948.1,0.047
947.15,0.047
946.2,0.047
945.25,0.047
944.3,0.047
943.35,0.047
942.4,0.047
941.45,0.047
940.5,0.047
939.55,0.047
938.6,0.047
937.65,0.047
936.7,0.047
935.75,0.047
934.8,0.047
933.85,0.047
932.9,0.047
931.95,0.047
931.0,0.047
930.05,0.047
929.1,0.047
928.15,0.047
927.2,0.047
926.25,0.047
925.3,0.047
924.35,0.047
923.4,0.047
922.45,0.047
921.5,0.047
920.55,0.047
919.6,0.047
918.65,0.047
917.7,0.047
916.75,0.047
915.8,0.047
914.85,0.047
913.9,0.047
912.95,0.047
912.0,0.047
911.05,0.047
910.1,0.047
909.15,0.047
908.2,0.047
907.25,0.047
906.3,0.047
905.35,0.047
904.4,0.047
903.45,0.047
902.5,0.047
901.55,0.047
900.6,0.047
899.65,0.047
898.7,0.047
897.75,0.047
896.8,0.047
895.85,0.047
894.9,0.047
893.95,0.047
893.0,0.047
892.05,0.047
891.1,0.047
890.15,0.047
889.2,0.047
888.25,0.047
887.3,0.047
886.35,0.047
885.4,0.047
884.45,0.047
883.5,0.047
882.55,0.047
881.6,0.047
880.65,0.047
879.7,0.047
878.75,0.047
877.8,0.047
876.85,0.047
875.9,0.047
874.95,0.047
874.0,0.047
873.05,0.047
872.1,0.047
871.15,0.047
870.2,0.047
869.25,0.047
868.3,0.047
867.35,0.047
866.4,0.047
865.45,0.047
864.5,0.047
863.55,0.047
862.6,0.047
861.65,0.047
860.7,0.047
859.75,0.047
858.8,0.047
857.85,0.047
856.9,0.047
855.95,0.047
855.0,0.047
854.05,0.047
853.1,0.047
852.15,0.047
851.2,0.047
850.25,0.047
849.3,0.047
848.35,0.047
847.4,0.047
846.45,0.047
845.5,0.047
844.55,0.047
843.6,0.047
842.65,0.047
841.7,0.047
840.75,0.047
839.8,0.047
838.85,0.047
837.9,0.047
836.95,0.047
836.0,0.047
835.05,0.047
834.1,0.047
833.15,0.047
832.2,0.047
831.25,0.047
830.3,0.047
829.35,0.047
828.4,0.047
827.45,0.047
826.5,0.047
825.55,0.047
824.6,0.047
823.65,0.047
822.7,0.047
821.75,0.047
820.8,0.047
819.85,0.047
818.9,0.047
817.95,0.047
817.0,0.047
816.05,0.047
815.1,0.047
814.15,0.047
813.2,0.047
812.25,0.047
811.3,0.047
810.35,0.047
809.4,0.047
808.45,0.047
807.5,0.046
806.55,0.046
805.6,0.046
804.65,0.046
803.7,0.046
802.75,0.045
801.8,0.045
800.85,0.045
799.9,0.045
798.95,0.044
798.0,0.044
797.05,0.044
796.1,0.044
795.15,0.044
794.2,0.044
793.25,0.044
792.3,0.044
791.35,0.042
790.4,0.042
789.45,0.042
788.5,0.041
787.55,0.041
786.6,0.041
785.65,0.041
784.7,0.041
783.75,0.041
782.8,0.041
781.85,0.041
780.9,0.041
779.95,0.038
779.0,0.038
778.05,0.039
777.1,0.039
776.15,0.040
775.2,0.040
774.25,0.041
773.3,0.041
772.35,0.042
771.4,0.042
770.45,0.043
769.5,0.043
768.55,0.043
767.6,0.044
766.65,0.044
765.7,0.046
764.75,0.046
763.8,0.048
762.85,0.047
761.9,0.047
760.95,0.048
760.0,0.048
759.05,0.049
758.1,0.049
757.15,0.046
756.2,0.045
755.25,0.045
754.3,0.044
753.35,0.045
752.4,0.044
751.45,0.042
750.5,0.042
749.55,0.040
748.6,0.037
747.65,0.034
746.7,0.032
745.75,0.032
744.8,0.030
743.85,0.030
742.9,0.029
741.95,0.026
741.0,0.026
740.05,0.027
739.1,0.027
738.15,0.027
737.2,0.027
736.25,0.027
735.3,0.027
734.35,0.027
733.4,0.027
732.45,0.027
731.5,0.027
730.55,0.027
729.6,0.027
728.65,0.024
727.7,0.024
726.75,0.023
725.8,0.023
724.85,0.024
723.9,0.024
722.95,0.024
722.0,0.024
721.05,0.025
720.1,0.025
719.15,0.025
718.2,0.025
717.25,0.024
716.3,0.024
715.35,0.024
714.4,0.024
713.45,0.024
712.5,0.024
711.55,0.023
710.6,0.024
709.65,0.021
708.7,0.021
707.75,0.021
706.8,0.021
705.85,0.018
704.9,0.018
703.95,0.018
703.0,0.018
702.05,0.018
701.1,0.018
700.15,0.017
699.2,0.017
698.25,0.017
697.3,0.018
696.35,0.018
695.4,0.019
694.45,0.021
693.5,0.023
692.55,0.022
691.6,0.022
690.65,0.025
689.7,0.025
688.75,0.029
687.8,0.030
686.85,0.034
685.9,0.035
684.95,0.041
684.0,0.042
683.05,0.049
682.1,0.050
681.15,0.054
680.2,0.057
679.25,0.067
678.3,0.069
677.35,0.078
676.4,0.082
675.45,0.099
674.5,0.105
673.55,0.121
672.6,0.127
671.65,0.146
670.7,0.157
669.75,0.177
668.8,0.186
667.85,0.207
666.9,0.219
665.95,0.239
665.0,0.255
664.05,0.274
663.1,0.292
662.15,0.311
661.2,0.329
660.25,0.349
659.3,0.365
658.35,0.385
657.4,0.403
656.45,0.421
655.5,0.436
654.55,0.456
653.6,0.476
652.65,0.488
651.7,0.504
650.75,0.524
649.8,0.543
648.85,0.564
647.9,0.583
646.95,0.603
646.0,0.622
645.05,0.645
644.1,0.666
643.15,0.686
642.2,0.711
641.25,0.727
640.3,0.744
639.35,0.768
638.4,0.781
637.45,0.800
636.5,0.814
635.55,0.835
634.6,0.848
633.65,0.864
632.7,0.876
631.75,0.897
630.8,0.909
629.85,0.928
628.9,0.939
627.95,0.956
627.0,0.968
626.05,0.979
625.1,0.984
624.15,0.992
623.2,0.993
622.25,0.999
621.3,1.000
620.35,0.999
619.4,0.999
618.45,0.998
617.5,0.996
616.55,0.994
615.6,0.993
614.65,0.989
613.7,0.983
612.75,0.974
611.8,0.954
610.85,0.941
609.9,0.919
608.95,0.894
608.0,0.864
607.05,0.840
606.1,0.809
605.15,0.792
604.2,0.770
603.25,0.760
602.3,0.747
601.35,0.743
600.4,0.743
599.45,0.743
598.5,0.741
597.55,0.738
596.6,0.736
595.65,0.735
594.7,0.733
593.75,0.730
592.8,0.732
591.85,0.731
590.9,0.731
589.95,0.730
589.0,0.731
588.05,0.731
587.1,0.732
586.15,0.729
585.2,0.724
584.25,0.725
583.3,0.727
582.35,0.730
581.4,0.735
580.45,0.739
579.5,0.744
578.55,0.747
577.6,0.750
576.65,0.753
575.7,0.758
574.75,0.761
573.8,0.764
572.85,0.766
571.9,0.772
570.95,0.775
570.0,0.763
569.05,0.752
568.1,0.738
567.15,0.725
566.2,0.714
565.25,0.705
564.3,0.694
563.35,0.683
562.4,0.674
561.45,0.664
560.5,0.654
559.55,0.644
558.6,0.635
557.65,0.624
556.7,0.617
555.75,0.613
554.8,0.608
553.85,0.604
552.9,0.598
551.95,0.592
551.0,0.585
550.05,0.580
549.1,0.571
548.15,0.562
547.2,0.556
546.25,0.551
545.3,0.550
544.35,0.547
543.4,0.546
542.45,0.543
541.5,0.540
540.55,0.536
539.6,0.534
538.65,0.531
537.7,0.527
536.75,0.520
535.8,0.513
534.85,0.496
533.9,0.486
532.95,0.467
532.0,0.460
531.05,0.449
530.1,0.441
529.15,0.428
528.2,0.424
527.25,0.413
526.3,0.408
525.35,0.397
524.4,0.392
523.45,0.379
522.5,0.372
521.55,0.357
520.6,0.350
519.65,0.336
518.7,0.329
517.75,0.315
516.8,0.304
515.85,0.288
514.9,0.280
513.95,0.265
513.0,0.259
512.05,0.247
511.1,0.240
510.15,0.230
509.2,0.223
508.25,0.212
507.3,0.204
506.35,0.193
505.4,0.184
504.45,0.171
503.5,0.163
502.55,0.154
501.6,0.146
500.65,0.135
499.7,0.131
498.75,0.121
497.8,0.118
496.85,0.110
495.9,0.107
494.95,0.102
494.0,0.101
493.05,0.100
492.1,0.102
491.15,0.106
490.2,0.109
489.25,0.115
488.3,0.117
487.35,0.122
486.4,0.124
485.45,0.131
484.5,0.132
483.55,0.141
482.6,0.143
481.65,0.150
480.7,0.151
479.75,0.155
478.8,0.156
477.85,0.155
476.9,0.153
475.95,0.148
475.0,0.145
474.05,0.138
473.1,0.134
472.15,0.128
471.2,0.123
470.25,0.115
469.3,0.110
468.35,0.099
467.4,0.092
466.45,0.086
465.5,0.080
464.55,0.071
463.6,0.066
462.65,0.060
461.7,0.056
460.75,0.051
459.8,0.045
458.85,0.042
457.9,0.037
456.95,0.034
456.0,0.030
455.05,0.027
454.1,0.023
453.15,0.021
452.2,0.016
451.25,0.015
450.3,0.013
449.35,0.010
448.4,0.010
447.45,0.009
446.5,0.008
445.55,0.009
444.6,0.009
443.65,0.009
442.7,0.009
441.75,0.008
440.8,0.008
439.85,0.008
438.9,0.008
437.95,0.008
437.0,0.008
436.05,0.008
435.1,0.008
434.15,0.007
433.2,0.007
432.25,0.007
431.3,0.007
430.35,0.008
429.4,0.008
428.45,0.007
427.5,0.007
426.55,0.008
425.6,0.008
424.65,0.008
423.7,0.008
422.75,0.008
421.8,0.008
420.85,0.007
419.9,0.007
418.95,0.007
418.0,0.007
417.05,0.007
416.1,0.007
415.15,0.007
414.2,0.007
413.25,0.007
412.3,0.007
411.35,0.007
410.4,0.007
409.45,0.007
408.5,0.007
407.55,0.007
406.6,0.007
405.65,0.007
404.7,0.007
403.75,0.007
402.8,0.007
401.85,0.007
400.9,0.007
399.95,0.007
399.0,0.007
398.05,0.007
397.1,0.007
396.15,0.007
395.2,0.007
394.25,0.007
393.3,0.007
392.35,0.007
391.4,0.007
390.45,0.007
389.5,0.007
388.55,0.007
387.6,0.007
386.65,0.007
385.7,0.007
384.75,0.007
383.8,0.007
382.85,0.007
381.9,0.007
380.95,0.007
380.0,0.007
