wavelength,amplitude
943.35,0.033
942.4,0.033
941.45,0.033
940.5,0.033
939.55,0.033
938.6,0.033
937.65,0.033
936.7,0.033
935.75,0.033
934.8,0.033
933.85,0.033
932.9,0.033
931.95,0.033
931.0,0.033
930.05,0.033
929.1,0.033
928.15,0.033
927.2,0.033
926.25,0.033
925.3,0.033
924.35,0.033
923.4,0.033
922.45,0.033
921.5,0.033
920.55,0.033
919.6,0.033
918.65,0.033
917.7,0.033
916.75,0.033
915.8,0.033
914.85,0.033
913.9,0.033
912.95,0.033
912.0,0.033
911.05,0.033
910.1,0.033
909.15,0.033
908.2,0.033
907.25,0.033
906.3,0.033
905.35,0.033
904.4,0.033
903.45,0.033
902.5,0.033
901.55,0.033
900.6,0.033
899.65,0.033
898.7,0.033
897.75,0.033
896.8,0.033
895.85,0.033
894.9,0.033
893.95,0.033
893.0,0.033
892.05,0.033
891.1,0.033
890.15,0.033
889.2,0.033
888.25,0.033
887.3,0.033
886.35,0.033
885.4,0.033
884.45,0.033
883.5,0.033
882.55,0.033
881.6,0.033
880.65,0.033
879.7,0.033
878.75,0.033
877.8,0.033
876.85,0.033
875.9,0.033
874.95,0.033
874.0,0.033
873.05,0.033
872.1,0.033
871.15,0.033
870.2,0.033
869.25,0.033
868.3,0.033
867.35,0.033
866.4,0.033
865.45,0.033
864.5,0.033
863.55,0.033
862.6,0.033
861.65,0.033
860.7,0.033
859.75,0.033
858.8,0.033
857.85,0.033
856.9,0.033
855.95,0.033
855.0,0.033
854.05,0.033
853.1,0.033
852.15,0.033
851.2,0.033
850.25,0.033
849.3,0.033
848.35,0.033
847.4,0.033
846.45,0.033
845.5,0.033
844.55,0.033
843.6,0.033
842.65,0.033
841.7,0.033
840.75,0.033
839.8,0.033
838.85,0.033
837.9,0.033
836.95,0.033
836.0,0.033
835.05,0.033
834.1,0.033
833.15,0.033
832.2,0.033
831.25,0.033
830.3,0.033
829.35,0.033
828.4,0.033
827.45,0.033
826.5,0.033
825.55,0.033
824.6,0.033
823.65,0.033
822.7,0.033
821.75,0.033
820.8,0.033
819.85,0.033
818.9,0.033
817.95,0.033
817.0,0.033
816.05,0.033
815.1,0.033
814.15,0.033
813.2,0.033
812.25,0.033
811.3,0.033
810.35,0.033
809.4,0.033
808.45,0.032
807.5,0.032
806.55,0.032
805.6,0.032
804.65,0.032
803.7,0.032
802.75,0.032
801.8,0.032
800.85,0.031
799.9,0.031
798.95,0.031
798.0,0.031
797.05,0.031
796.1,0.031
795.15,0.031
794.2,0.031
793.25,0.031
792.3,0.030
791.35,0.030
790.4,0.030
789.45,0.030
788.5,0.030
787.55,0.030
786.6,0.030
785.65,0.030
784.7,0.030
783.75,0.029
782.8,0.029
781.85,0.029
780.9,0.029
779.95,0.029
779.0,0.029
778.05,0.029
777.1,0.029
776.15,0.029
775.2,0.029
774.25,0.028
773.3,0.028
772.35,0.028
771.4,0.028
770.45,0.028
769.5,0.028
768.55,0.028
767.6,0.028
766.65,0.028
765.7,0.028
764.75,0.027
763.8,0.027
762.85,0.027
761.9,0.027
760.95,0.027
760.0,0.027
759.05,0.027
758.1,0.027
757.15,0.027
756.2,0.027
755.25,0.027
754.3,0.026
753.35,0.026
752.4,0.026
751.45,0.026
750.5,0.026
749.55,0.026
748.6,0.026
747.65,0.026
746.7,0.026
745.75,0.026
744.8,0.026
743.85,0.026
742.9,0.026
741.95,0.025
741.0,0.025
740.05,0.025
739.1,0.025
738.15,0.025
737.2,0.025
736.25,0.025
735.3,0.025
734.35,0.025
733.4,0.025
732.45,0.025
731.5,0.025
730.55,0.025
729.6,0.024
728.65,0.024
727.7,0.024
726.75,0.024
725.8,0.024
724.85,0.024
723.9,0.024
722.95,0.024
722.0,0.024
721.05,0.024
720.1,0.024
719.15,0.024
718.2,0.024
717.25,0.024
716.3,0.023
715.35,0.023
714.4,0.023
713.45,0.023
712.5,0.023
711.55,0.023
710.6,0.023
709.65,0.023
708.7,0.023
707.75,0.023
706.8,0.023
705.85,0.023
704.9,0.023
703.95,0.023
703.0,0.023
702.05,0.023
701.1,0.022
700.15,0.022
699.2,0.022
698.25,0.022
697.3,0.022
696.35,0.022
695.4,0.022
694.45,0.022
693.5,0.022
692.55,0.022
691.6,0.022
690.65,0.022
689.7,0.022
688.75,0.022
687.8,0.022
686.85,0.022
685.9,0.022
684.95,0.021
684.0,0.021
683.05,0.021
682.1,0.021
681.15,0.021
680.2,0.021
679.25,0.021
678.3,0.021
677.35,0.021
676.4,0.021
675.45,0.020
674.5,0.020
673.55,0.020
672.6,0.020
671.65,0.020
670.7,0.020
669.75,0.018
668.8,0.018
667.85,0.018
666.9,0.018
665.95,0.017
665.0,0.017
664.05,0.017
663.1,0.017
662.15,0.018
661.2,0.018
660.25,0.017
659.3,0.017
658.35,0.016
657.4,0.016
656.45,0.016
655.5,0.016
654.55,0.017
653.6,0.019
652.65,0.024
651.7,0.033
650.75,0.048
649.8,0.064
648.85,0.081
647.9,0.095
646.95,0.106
646.0,0.111
645.05,0.116
644.1,0.117
643.15,0.122
642.2,0.124
641.25,0.131
640.3,0.132
639.35,0.137
638.4,0.139
637.45,0.146
636.5,0.152
635.55,0.158
634.6,0.179
633.65,0.210
632.7,0.259
631.75,0.335
630.8,0.429
629.85,0.554
628.9,0.679
627.95,0.819
627.0,0.925
626.05,0.991
625.1,1.000
624.15,0.914
623.2,0.805
622.25,0.644
621.3,0.502
620.35,0.373
619.4,0.270
618.45,0.210
617.5,0.168
616.55,0.154
615.6,0.145
614.65,0.156
613.7,0.171
612.75,0.187
611.8,0.202
610.85,0.203
609.9,0.206
608.95,0.209
608.0,0.215
607.05,0.243
606.1,0.267
605.15,0.287
604.2,0.302
603.25,0.293
602.3,0.285
601.35,0.291
600.4,0.296
599.45,0.320
598.5,0.340
597.55,0.339
596.6,0.337
595.65,0.320
594.7,0.301
593.75,0.289
592.8,0.276
591.85,0.280
590.9,0.287
589.95,0.287
589.0,0.288
588.05,0.258
587.1,0.223
586.15,0.170
585.2,0.115
584.25,0.079
583.3,0.051
582.35,0.036
581.4,0.026
580.45,0.018
579.5,0.016
578.55,0.016
577.6,0.016
576.65,0.017
575.7,0.017
574.75,0.018
573.8,0.019
572.85,0.019
571.9,0.021
570.95,0.026
570.0,0.028
569.05,0.029
568.1,0.035
567.15,0.043
566.2,0.054
565.25,0.074
564.3,0.102
563.35,0.138
562.4,0.184
561.45,0.241
560.5,0.303
559.55,0.380
558.6,0.465
557.65,0.567
556.7,0.681
555.75,0.778
554.8,0.851
553.85,0.889
552.9,0.888
551.95,0.877
551.0,0.850
550.05,0.815
549.1,0.761
548.15,0.684
547.2,0.590
546.25,0.494
545.3,0.396
544.35,0.303
543.4,0.228
542.45,0.156
541.5,0.113
540.55,0.081
539.6,0.059
538.65,0.040
537.7,0.029
536.75,0.021
535.8,0.019
534.85,0.015
533.9,0.015
532.95,0.014
532.0,0.014
531.05,0.013
530.1,0.013
529.15,0.013
528.2,0.013
527.25,0.012
526.3,0.012
525.35,0.013
524.4,0.013
523.45,0.014
522.5,0.014
521.55,0.014
520.6,0.014
519.65,0.014
518.7,0.014
517.75,0.014
516.8,0.014
515.85,0.014
514.9,0.014
513.95,0.014
513.0,0.014
512.05,0.014
511.1,0.015
510.15,0.016
509.2,0.018
508.25,0.022
507.3,0.026
506.35,0.034
505.4,0.041
504.45,0.049
503.5,0.059
502.55,0.069
501.6,0.078
500.65,0.090
499.7,0.102
498.75,0.115
497.8,0.126
496.85,0.139
495.9,0.152
494.95,0.163
494.0,0.169
493.05,0.172
492.1,0.164
491.15,0.148
490.2,0.124
489.25,0.094
488.3,0.069
487.35,0.047
486.4,0.032
485.45,0.021
484.5,0.015
483.55,0.012
482.6,0.010
481.65,0.007
480.7,0.007
479.75,0.007
478.8,0.007
477.85,0.009
476.9,0.009
475.95,0.009
475.0,0.009
474.05,0.010
473.1,0.010
472.15,0.011
471.2,0.011
470.25,0.010
469.3,0.010
468.35,0.011
467.4,0.012
466.45,0.013
465.5,0.014
464.55,0.014
463.6,0.015
462.65,0.016
461.7,0.016
460.75,0.016
459.8,0.016
458.85,0.016
457.9,0.016
456.95,0.016
456.0,0.016
455.05,0.015
454.1,0.015
453.15,0.015
452.2,0.015
451.25,0.016
450.3,0.016
449.35,0.016
448.4,0.016
447.45,0.016
446.5,0.017
445.55,0.022
444.6,0.029
443.65,0.040
442.7,0.054
441.75,0.064
440.8,0.071
439.85,0.065
438.9,0.059
437.95,0.051
437.0,0.043
436.05,0.033
435.1,0.024
434.15,0.017
433.2,0.015
432.25,0.015
431.3,0.015
430.35,0.016
429.4,0.016
428.45,0.016
427.5,0.015
426.55,0.015
425.6,0.015
424.65,0.015
423.7,0.015
422.75,0.015
421.8,0.015
420.85,0.014
419.9,0.014
418.95,0.014
418.0,0.014
417.05,0.014
416.1,0.014
415.15,0.014
414.2,0.014
413.25,0.014
412.3,0.015
411.35,0.015
410.4,0.015
409.45,0.015
408.5,0.016
407.55,0.015
406.6,0.016
405.65,0.016
404.7,0.016
403.75,0.015
402.8,0.015
401.85,0.015
400.9,0.016
399.95,0.016
399.0,0.017
398.05,0.017
397.1,0.017
396.15,0.017
395.2,0.017
394.25,0.017
393.3,0.016
392.35,0.016
391.4,0.016
390.45,0.016
389.5,0.016
388.55,0.016
387.6,0.016
386.65,0.016
385.7,0.016
384.75,0.016
383.8,0.017
382.85,0.017
381.9,0.017
380.95,0.017
380.0,0.017
