wavelength,amplitude
999.22,0.012
998.28,0.012
997.34,0.012
996.4,0.012
995.46,0.012
994.52,0.012
993.58,0.012
992.64,0.012
991.7,0.012
990.76,0.013
989.82,0.013
988.88,0.013
987.94,0.013
987.0,0.013
986.06,0.018
985.12,0.018
984.18,0.018
983.24,0.019
982.3,0.019
981.36,0.020
980.42,0.015
979.48,0.016
978.54,0.018
977.6,0.018
976.66,0.018
975.72,0.019
974.78,0.019
973.84,0.019
972.9,0.018
971.96,0.018
971.02,0.017
970.08,0.016
969.14,0.016
968.2,0.017
967.26,0.017
966.32,0.018
965.38,0.019
964.44,0.020
963.5,0.023
962.56,0.023
961.62,0.025
960.68,0.027
959.74,0.027
958.8,0.029
957.86,0.030
956.92,0.031
955.98,0.034
955.04,0.033
954.1,0.035
953.16,0.035
952.22,0.036
951.28,0.037
950.34,0.036
949.4,0.036
948.46,0.035
947.52,0.034
946.58,0.031
945.64,0.029
944.7,0.029
943.76,0.028
942.82,0.028
941.88,0.028
940.94,0.029
940.0,0.030
939.06,0.030
938.12,0.030
937.18,0.029
936.24,0.030
935.3,0.030
934.36,0.029
933.42,0.027
932.48,0.025
931.54,0.025
930.6,0.025
929.66,0.026
928.72,0.026
927.78,0.026
926.84,0.026
925.9,0.026
924.96,0.026
924.02,0.026
923.08,0.026
922.14,0.027
921.2,0.027
920.26,0.028
919.32,0.028
918.38,0.027
917.44,0.027
916.5,0.027
915.56,0.027
914.62,0.027
913.68,0.028
912.74,0.027
911.8,0.028
910.86,0.031
909.92,0.033
908.98,0.033
908.04,0.036
907.1,0.038
906.16,0.039
905.22,0.040
904.28,0.040
903.34,0.043
902.4,0.043
901.46,0.045
900.52,0.046
899.58,0.045
898.64,0.045
897.7,0.045
896.76,0.043
895.82,0.040
894.88,0.039
893.94,0.035
893.0,0.034
892.06,0.039
891.12,0.040
890.18,0.040
889.24,0.041
888.3,0.042
887.36,0.042
886.42,0.038
885.48,0.039
884.54,0.044
883.6,0.043
882.66,0.044
881.72,0.044
880.78,0.045
879.84,0.045
878.9,0.046
877.96,0.047
877.02,0.047
876.08,0.047
875.14,0.049
874.2,0.047
873.26,0.047
872.32,0.046
871.38,0.044
870.44,0.043
869.5,0.043
868.56,0.043
867.62,0.042
866.68,0.042
865.74,0.043
864.8,0.044
863.86,0.045
862.92,0.045
861.98,0.046
861.04,0.046
860.1,0.047
859.16,0.047
858.22,0.048
857.28,0.048
856.34,0.049
855.4,0.049
854.46,0.048
853.52,0.048
852.58,0.049
851.64,0.050
850.7,0.050
849.76,0.052
848.82,0.053
847.88,0.054
846.94,0.055
846.0,0.055
845.06,0.056
844.12,0.056
843.18,0.057
842.24,0.059
841.3,0.059
840.36,0.060
839.42,0.059
838.48,0.059
837.54,0.059
836.6,0.059
835.66,0.061
834.72,0.063
833.78,0.066
832.84,0.067
831.9,0.073
830.96,0.076
830.02,0.080
829.08,0.081
828.14,0.081
827.2,0.083
826.26,0.086
825.32,0.089
824.38,0.089
823.44,0.089
822.5,0.088
821.56,0.085
820.62,0.081
819.68,0.079
818.74,0.078
817.8,0.074
816.86,0.069
815.92,0.067
814.98,0.065
814.04,0.064
813.1,0.060
812.16,0.060
811.22,0.060
810.28,0.063
809.34,0.064
808.4,0.066
807.46,0.071
806.52,0.074
805.58,0.075
804.64,0.077
803.7,0.081
802.76,0.083
801.82,0.087
800.88,0.090
799.94,0.092
799.0,0.092
798.06,0.098
797.12,0.100
796.18,0.104
795.24,0.107
794.3,0.115
793.36,0.114
792.42,0.123
791.48,0.133
790.54,0.144
789.6,0.147
788.66,0.152
787.72,0.157
786.78,0.161
785.84,0.165
784.9,0.169
783.96,0.173
783.02,0.175
782.08,0.175
781.14,0.176
780.2,0.174
779.26,0.172
778.32,0.173
777.38,0.173
776.44,0.178
775.5,0.178
774.56,0.176
773.62,0.170
772.68,0.163
771.74,0.153
770.8,0.147
769.86,0.148
768.92,0.147
767.98,0.148
767.04,0.148
766.1,0.148
765.16,0.148
764.22,0.145
763.28,0.141
762.34,0.137
761.4,0.135
760.46,0.135
759.52,0.134
758.58,0.136
757.64,0.133
756.7,0.132
755.76,0.128
754.82,0.125
753.88,0.123
752.94,0.125
752.0,0.128
751.06,0.132
750.12,0.140
749.18,0.148
748.24,0.154
747.3,0.159
746.36,0.165
745.42,0.175
744.48,0.177
743.54,0.182
742.6,0.185
741.66,0.186
740.72,0.188
739.78,0.190
738.84,0.188
737.9,0.186
736.96,0.185
736.02,0.180
735.08,0.173
734.14,0.166
733.2,0.156
732.26,0.146
731.32,0.136
730.38,0.126
729.44,0.117
728.5,0.111
727.56,0.107
726.62,0.102
725.68,0.097
724.74,0.093
723.8,0.089
722.86,0.082
721.92,0.078
720.98,0.073
720.04,0.070
719.1,0.070
718.16,0.069
717.22,0.072
716.28,0.073
715.34,0.074
714.4,0.075
713.46,0.076
712.52,0.076
711.58,0.077
710.64,0.078
709.7,0.080
708.76,0.081
707.82,0.080
706.88,0.079
705.94,0.079
705.0,0.078
704.06,0.082
703.12,0.081
702.18,0.081
701.24,0.081
700.3,0.078
699.36,0.079
698.42,0.079
697.48,0.079
696.54,0.082
695.6,0.081
694.66,0.083
693.72,0.083
692.78,0.084
691.84,0.084
690.9,0.086
689.96,0.087
689.02,0.087
688.08,0.088
687.14,0.090
686.2,0.091
685.26,0.092
684.32,0.093
683.38,0.093
682.44,0.094
681.5,0.093
680.56,0.092
679.62,0.095
678.68,0.097
677.74,0.101
676.8,0.103
675.86,0.104
674.92,0.108
673.98,0.113
673.04,0.117
672.1,0.126
671.16,0.137
670.22,0.153
669.28,0.165
668.34,0.171
667.4,0.175
666.46,0.186
665.52,0.209
664.58,0.273
663.64,0.362
662.7,0.457
661.76,0.545
660.82,0.632
659.88,0.731
658.94,0.829
658.0,0.912
657.06,0.973
656.12,1.000
655.18,0.976
654.24,0.919
653.3,0.834
652.36,0.721
651.42,0.562
650.48,0.405
649.54,0.312
648.6,0.269
647.66,0.251
646.72,0.240
645.78,0.230
644.84,0.222
643.9,0.212
642.96,0.207
642.02,0.204
641.08,0.201
640.14,0.198
639.2,0.196
638.26,0.195
637.32,0.197
636.38,0.199
635.44,0.199
634.5,0.203
633.56,0.206
632.62,0.208
631.68,0.211
630.74,0.215
629.8,0.219
628.86,0.221
627.92,0.222
626.98,0.224
626.04,0.228
625.1,0.232
624.16,0.241
623.22,0.250
622.28,0.258
621.34,0.266
620.4,0.278
619.46,0.290
618.52,0.300
617.58,0.310
616.64,0.318
615.7,0.327
614.76,0.337
613.82,0.352
612.88,0.365
611.94,0.379
611.0,0.391
610.06,0.409
609.12,0.424
608.18,0.437
607.24,0.447
606.3,0.454
605.36,0.462
604.42,0.474
603.48,0.489
602.54,0.509
601.6,0.527
600.66,0.538
599.72,0.546
598.78,0.557
597.84,0.570
596.9,0.583
595.96,0.590
595.02,0.596
594.08,0.598
593.14,0.604
592.2,0.614
591.26,0.623
590.32,0.629
589.38,0.634
588.44,0.636
587.5,0.637
586.56,0.637
585.62,0.636
584.68,0.632
583.74,0.635
582.8,0.642
581.86,0.652
580.92,0.661
579.98,0.670
579.04,0.672
578.1,0.673
577.16,0.678
576.22,0.684
575.28,0.687
574.34,0.675
573.4,0.654
572.46,0.627
571.52,0.597
570.58,0.562
569.64,0.531
568.7,0.503
567.76,0.478
566.82,0.458
565.88,0.440
564.94,0.423
564.0,0.405
563.06,0.387
562.12,0.370
561.18,0.353
560.24,0.336
559.3,0.320
558.36,0.307
557.42,0.294
556.48,0.286
555.54,0.280
554.6,0.278
553.66,0.275
552.72,0.276
551.78,0.278
550.84,0.280
549.9,0.284
548.96,0.289
548.02,0.293
547.08,0.299
546.14,0.301
545.2,0.303
544.26,0.301
543.32,0.300
542.38,0.299
541.44,0.301
540.5,0.305
539.56,0.310
538.62,0.315
537.68,0.322
536.74,0.328
535.8,0.336
534.86,0.342
533.92,0.344
532.98,0.344
532.04,0.343
531.1,0.340
530.16,0.338
529.22,0.336
528.28,0.336
527.34,0.336
526.4,0.339
525.46,0.343
524.52,0.347
523.58,0.349
522.64,0.351
521.7,0.354
520.76,0.356
519.82,0.356
518.88,0.356
517.94,0.355
517.0,0.354
516.06,0.354
515.12,0.354
514.18,0.355
513.24,0.356
512.3,0.359
511.36,0.360
510.42,0.361
509.48,0.361
508.54,0.360
507.6,0.362
506.66,0.363
505.72,0.367
504.78,0.375
503.84,0.384
502.9,0.395
501.96,0.406
501.02,0.417
500.08,0.426
499.14,0.437
498.2,0.446
497.26,0.455
496.32,0.463
495.38,0.473
494.44,0.482
493.5,0.489
492.56,0.496
491.62,0.504
490.68,0.514
489.74,0.530
488.8,0.545
487.86,0.560
486.92,0.575
485.98,0.586
485.04,0.602
484.1,0.625
483.16,0.652
482.22,0.686
481.28,0.732
480.34,0.762
479.4,0.763
478.46,0.743
477.52,0.714
476.58,0.672
475.64,0.612
474.7,0.567
473.76,0.537
472.82,0.520
471.88,0.503
470.94,0.486
470.0,0.467
469.06,0.447
468.12,0.427
467.18,0.408
466.24,0.393
465.3,0.375
464.36,0.355
463.42,0.333
462.48,0.311
461.54,0.292
460.6,0.277
459.66,0.266
458.72,0.258
457.78,0.256
456.84,0.254
455.9,0.254
454.96,0.253
454.02,0.251
453.08,0.250
452.14,0.250
451.2,0.251
450.26,0.251
449.32,0.251
448.38,0.250
447.44,0.249
446.5,0.248
445.56,0.248
444.62,0.248
443.68,0.248
442.74,0.247
441.8,0.247
440.86,0.246
439.92,0.245
438.98,0.244
438.04,0.244
437.1,0.243
436.16,0.241
435.22,0.239
434.28,0.238
433.34,0.237
432.4,0.235
431.46,0.235
430.52,0.236
429.58,0.237
428.64,0.237
427.7,0.237
426.76,0.235
425.82,0.230
424.88,0.228
423.94,0.225
423.0,0.223
422.06,0.223
421.12,0.223
420.18,0.220
419.24,0.220
418.3,0.222
417.36,0.223
416.42,0.224
415.48,0.225
414.54,0.227
413.6,0.227
412.66,0.227
411.72,0.226
410.78,0.226
409.84,0.225
408.9,0.225
407.96,0.227
407.02,0.228
406.08,0.231
405.14,0.236
404.2,0.241
403.26,0.243
402.32,0.244
401.38,0.246
400.44,0.245
399.5,0.244
398.56,0.243
397.62,0.243
396.68,0.243
395.74,0.245
394.8,0.245
393.86,0.244
392.92,0.242
391.98,0.239
391.04,0.236
390.1,0.233
389.16,0.231
388.22,0.231
387.28,0.230
386.34,0.231
385.4,0.231
384.46,0.232
383.52,0.230
382.58,0.227
381.64,0.220
380.7,0.209
