wavelength,amplitude
964.25,0.030
963.3,0.030
962.35,0.030
961.4,0.030
960.45,0.030
959.5,0.030
958.55,0.030
957.6,0.030
956.65,0.030
955.7,0.030
954.75,0.030
953.8,0.030
952.85,0.030
951.9,0.030
950.95,0.030
950.0,0.030
949.05,0.030
948.1,0.030
947.15,0.030
946.2,0.030
945.25,0.030
944.3,0.030
943.35,0.030
942.4,0.030
941.45,0.030
940.5,0.030
939.55,0.030
938.6,0.030
937.65,0.030
936.7,0.030
935.75,0.030
934.8,0.030
933.85,0.030
932.9,0.030
931.95,0.030
931.0,0.030
930.05,0.030
929.1,0.030
928.15,0.030
927.2,0.030
926.25,0.030
925.3,0.030
924.35,0.030
923.4,0.030
922.45,0.030
921.5,0.030
920.55,0.030
919.6,0.030
918.65,0.030
917.7,0.030
916.75,0.030
915.8,0.030
914.85,0.030
913.9,0.030
912.95,0.030
912.0,0.030
911.05,0.030
910.1,0.030
909.15,0.030
908.2,0.030
907.25,0.030
906.3,0.030
905.35,0.030
904.4,0.030
903.45,0.030
902.5,0.030
901.55,0.030
900.6,0.030
899.65,0.030
898.7,0.030
897.75,0.030
896.8,0.030
895.85,0.030
894.9,0.030
893.95,0.030
893.0,0.030
892.05,0.030
891.1,0.030
890.15,0.030
889.2,0.030
888.25,0.030
887.3,0.030
886.35,0.030
885.4,0.030
884.45,0.030
883.5,0.030
882.55,0.030
881.6,0.030
880.65,0.030
879.7,0.030
878.75,0.030
877.8,0.030
876.85,0.030
875.9,0.030
874.95,0.030
874.0,0.030
873.05,0.030
872.1,0.030
871.15,0.030
870.2,0.030
869.25,0.030
868.3,0.030
867.35,0.030
866.4,0.030
865.45,0.030
864.5,0.030
863.55,0.030
862.6,0.030
861.65,0.030
860.7,0.030
859.75,0.030
858.8,0.030
857.85,0.030
856.9,0.030
855.95,0.030
855.0,0.030
854.05,0.030
853.1,0.030
852.15,0.030
851.2,0.030
850.25,0.030
849.3,0.030
848.35,0.030
847.4,0.030
846.45,0.030
845.5,0.030
844.55,0.030
843.6,0.030
842.65,0.030
841.7,0.030
840.75,0.030
839.8,0.030
838.85,0.030
837.9,0.030
836.95,0.030
836.0,0.030
835.05,0.030
834.1,0.030
833.15,0.030
832.2,0.030
831.25,0.030
830.3,0.030
829.35,0.030
828.4,0.030
827.45,0.030
826.5,0.030
825.55,0.030
824.6,0.030
823.65,0.030
822.7,0.030
821.75,0.030
820.8,0.030
819.85,0.030
818.9,0.030
817.95,0.030
817.0,0.030
816.05,0.030
815.1,0.030
814.15,0.030
813.2,0.030
812.25,0.030
811.3,0.030
810.35,0.030
809.4,0.029
808.45,0.029
807.5,0.029
806.55,0.029
805.6,0.029
804.65,0.029
803.7,0.029
802.75,0.029
801.8,0.029
800.85,0.028
799.9,0.028
798.95,0.028
798.0,0.028
797.05,0.028
796.1,0.028
795.15,0.028
794.2,0.028
793.25,0.028
792.3,0.027
791.35,0.027
790.4,0.027
789.45,0.027
788.5,0.027
787.55,0.027
786.6,0.027
785.65,0.027
784.7,0.027
783.75,0.027
782.8,0.027
781.85,0.026
780.9,0.026
779.95,0.026
779.0,0.026
778.05,0.026
777.1,0.026
776.15,0.026
775.2,0.026
774.25,0.026
773.3,0.026
772.35,0.026
771.4,0.025
770.45,0.025
769.5,0.025
768.55,0.025
767.6,0.025
766.65,0.025
765.7,0.025
764.75,0.025
763.8,0.025
762.85,0.025
761.9,0.025
760.95,0.025
760.0,0.024
759.05,0.024
758.1,0.024
757.15,0.024
756.2,0.024
755.25,0.024
754.3,0.024
753.35,0.024
752.4,0.024
751.45,0.024
750.5,0.024
749.55,0.024
748.6,0.024
747.65,0.023
746.7,0.023
745.75,0.023
744.8,0.023
743.85,0.023
742.9,0.023
741.95,0.023
741.0,0.023
740.05,0.023
739.1,0.023
738.15,0.023
737.2,0.023
736.25,0.023
735.3,0.023
734.35,0.022
733.4,0.022
732.45,0.022
731.5,0.022
730.55,0.022
729.6,0.022
728.65,0.022
727.7,0.022
726.75,0.022
725.8,0.022
724.85,0.022
723.9,0.022
722.95,0.022
722.0,0.022
721.05,0.021
720.1,0.021
719.15,0.021
718.2,0.021
717.25,0.021
716.3,0.021
715.35,0.021
714.4,0.021
713.45,0.021
712.5,0.021
711.55,0.020
710.6,0.020
709.65,0.021
708.7,0.021
707.75,0.020
706.8,0.020
705.85,0.017
704.9,0.017
703.95,0.016
703.0,0.016
702.05,0.013
701.1,0.013
700.15,0.013
699.2,0.013
698.25,0.013
697.3,0.013
696.35,0.013
695.4,0.013
694.45,0.013
693.5,0.013
692.55,0.015
691.6,0.015
690.65,0.019
689.7,0.019
688.75,0.023
687.8,0.023
686.85,0.029
685.9,0.031
684.95,0.038
684.0,0.042
683.05,0.051
682.1,0.055
681.15,0.065
680.2,0.074
679.25,0.086
678.3,0.094
677.35,0.111
676.4,0.119
675.45,0.136
674.5,0.145
673.55,0.162
672.6,0.175
671.65,0.193
670.7,0.206
669.75,0.221
668.8,0.237
667.85,0.252
666.9,0.267
665.95,0.283
665.0,0.300
664.05,0.314
663.1,0.331
662.15,0.347
661.2,0.363
660.25,0.379
659.3,0.394
658.35,0.408
657.4,0.423
656.45,0.437
655.5,0.453
654.55,0.471
653.6,0.490
652.65,0.510
651.7,0.527
650.75,0.545
649.8,0.562
648.85,0.583
647.9,0.606
646.95,0.627
646.0,0.649
645.05,0.668
644.1,0.688
643.15,0.712
642.2,0.730
641.25,0.750
640.3,0.765
639.35,0.783
638.4,0.799
637.45,0.813
636.5,0.829
635.55,0.847
634.6,0.864
633.65,0.880
632.7,0.895
631.75,0.914
630.8,0.926
629.85,0.940
628.9,0.949
627.95,0.962
627.0,0.969
626.05,0.977
625.1,0.981
624.15,0.987
623.2,0.989
622.25,0.995
621.3,0.996
620.35,0.998
619.4,0.999
618.45,0.999
617.5,1.000
616.55,0.995
615.6,0.990
614.65,0.979
613.7,0.965
612.75,0.946
611.8,0.924
610.85,0.896
609.9,0.864
608.95,0.834
608.0,0.802
607.05,0.779
606.1,0.758
605.15,0.752
604.2,0.748
603.25,0.748
602.3,0.751
601.35,0.750
600.4,0.752
599.45,0.749
598.5,0.748
597.55,0.746
596.6,0.745
595.65,0.744
594.7,0.744
593.75,0.744
592.8,0.746
591.85,0.745
590.9,0.746
589.95,0.744
589.0,0.743
588.05,0.740
587.1,0.737
586.15,0.733
585.2,0.731
584.25,0.733
583.3,0.737
582.35,0.741
581.4,0.746
580.45,0.750
579.5,0.753
578.55,0.756
577.6,0.761
576.65,0.766
575.7,0.770
574.75,0.775
573.8,0.779
572.85,0.783
571.9,0.786
570.95,0.789
570.0,0.777
569.05,0.767
568.1,0.757
567.15,0.746
566.2,0.737
565.25,0.727
564.3,0.718
563.35,0.708
562.4,0.697
561.45,0.689
560.5,0.680
559.55,0.671
558.6,0.662
557.65,0.654
556.7,0.646
555.75,0.642
554.8,0.638
553.85,0.634
552.9,0.629
551.95,0.624
551.0,0.620
550.05,0.616
549.1,0.612
548.15,0.607
547.2,0.603
546.25,0.600
545.3,0.595
544.35,0.589
543.4,0.585
542.45,0.582
541.5,0.579
540.55,0.571
539.6,0.567
538.65,0.558
537.7,0.550
536.75,0.537
535.8,0.531
534.85,0.521
533.9,0.514
532.95,0.502
532.0,0.496
531.05,0.486
530.1,0.481
529.15,0.472
528.2,0.466
527.25,0.456
526.3,0.451
525.35,0.442
524.4,0.436
523.45,0.426
522.5,0.420
521.55,0.409
520.6,0.402
519.65,0.390
518.7,0.383
517.75,0.372
516.8,0.367
515.85,0.359
514.9,0.352
513.95,0.346
513.0,0.339
512.05,0.332
511.1,0.325
510.15,0.318
509.2,0.309
508.25,0.300
507.3,0.290
506.35,0.280
505.4,0.270
504.45,0.257
503.5,0.249
502.55,0.239
501.6,0.229
500.65,0.219
499.7,0.210
498.75,0.200
497.8,0.194
496.85,0.185
495.9,0.179
494.95,0.177
494.0,0.174
493.05,0.175
492.1,0.175
491.15,0.179
490.2,0.181
489.25,0.186
488.3,0.189
487.35,0.195
486.4,0.199
485.45,0.205
484.5,0.208
483.55,0.212
482.6,0.213
481.65,0.213
480.7,0.212
479.75,0.207
478.8,0.205
477.85,0.198
476.9,0.192
475.95,0.182
475.0,0.173
474.05,0.162
473.1,0.152
472.15,0.138
471.2,0.126
470.25,0.112
469.3,0.101
468.35,0.088
467.4,0.078
466.45,0.067
465.5,0.058
464.55,0.052
463.6,0.043
462.65,0.037
461.7,0.030
460.75,0.027
459.8,0.021
458.85,0.019
457.9,0.016
456.95,0.014
456.0,0.012
455.05,0.012
454.1,0.012
453.15,0.012
452.2,0.012
451.25,0.012
450.3,0.012
449.35,0.012
448.4,0.012
447.45,0.012
446.5,0.012
445.55,0.012
444.6,0.012
443.65,0.012
442.7,0.012
441.75,0.012
440.8,0.012
439.85,0.012
438.9,0.012
437.95,0.012
437.0,0.012
436.05,0.012
435.1,0.012
434.15,0.012
433.2,0.011
432.25,0.011
431.3,0.011
430.35,0.011
429.4,0.011
428.45,0.011
427.5,0.011
426.55,0.011
425.6,0.011
424.65,0.011
423.7,0.011
422.75,0.011
421.8,0.011
420.85,0.011
419.9,0.011
418.95,0.011
418.0,0.011
417.05,0.011
416.1,0.011
415.15,0.011
414.2,0.011
413.25,0.011
412.3,0.011
411.35,0.011
410.4,0.011
409.45,0.011
408.5,0.011
407.55,0.011
406.6,0.011
405.65,0.011
404.7,0.011
403.75,0.011
402.8,0.011
401.85,0.011
400.9,0.011
399.95,0.011
399.0,0.011
398.05,0.011
397.1,0.011
396.15,0.011
395.2,0.011
394.25,0.011
393.3,0.011
392.35,0.011
391.4,0.011
390.45,0.011
389.5,0.011
388.55,0.011
387.6,0.011
386.65,0.011
385.7,0.011
384.75,0.011
383.8,0.011
382.85,0.011
381.9,0.011
380.95,0.011
380.0,0.011
