wavelength,amplitude
999.9,0.050
999.0,0.050
998.1,0.050
997.2,0.050
996.3,0.050
995.4,0.050
994.5,0.050
993.6,0.050
992.7,0.050
991.8,0.050
990.9,0.050
990.0,0.050
989.1,0.050
988.2,0.050
987.3,0.050
986.4,0.050
985.5,0.050
984.6,0.050
983.7,0.050
982.8,0.050
981.9,0.050
981.0,0.050
980.1,0.050
979.2,0.050
978.3,0.050
977.4,0.050
976.5,0.050
975.6,0.050
974.7,0.050
973.8,0.050
972.9,0.050
972.0,0.050
971.1,0.050
970.2,0.050
969.3,0.050
968.4,0.050
967.5,0.050
966.6,0.050
965.7,0.050
964.8,0.050
963.9,0.050
963.0,0.050
962.1,0.050
961.2,0.050
960.3,0.050
959.4,0.050
958.5,0.050
957.6,0.050
956.7,0.050
955.8,0.050
954.9,0.050
954.0,0.050
953.1,0.050
952.2,0.050
951.3,0.050
950.4,0.050
949.5,0.050
948.6,0.050
947.7,0.050
946.8,0.050
945.9,0.050
945.0,0.050
944.1,0.050
943.2,0.050
942.3,0.050
941.4,0.050
940.5,0.050
939.6,0.050
938.7,0.050
937.8,0.050
936.9,0.050
936.0,0.050
935.1,0.050
934.2,0.050
933.3,0.050
932.4,0.050
931.5,0.050
930.6,0.050
929.7,0.050
928.8,0.050
927.9,0.050
927.0,0.050
926.1,0.050
925.2,0.050
924.3,0.050
923.4,0.050
922.5,0.050
921.6,0.050
920.7,0.050
919.8,0.050
918.9,0.050
918.0,0.050
917.1,0.050
916.2,0.050
915.3,0.050
914.4,0.050
913.5,0.050
912.6,0.050
911.7,0.050
910.8,0.050
909.9,0.050
909.0,0.050
908.1,0.050
907.2,0.050
906.3,0.050
905.4,0.050
904.5,0.050
903.6,0.050
902.7,0.050
901.8,0.050
900.9,0.050
900.0,0.050
899.1,0.050
898.2,0.050
897.3,0.050
896.4,0.050
895.5,0.050
894.6,0.050
893.7,0.050
892.8,0.050
891.9,0.050
891.0,0.050
890.1,0.050
889.2,0.050
888.3,0.050
887.4,0.050
886.5,0.050
885.6,0.050
884.7,0.050
883.8,0.050
882.9,0.050
882.0,0.050
881.1,0.050
880.2,0.050
879.3,0.050
878.4,0.050
877.5,0.050
876.6,0.050
875.7,0.050
874.8,0.050
873.9,0.050
873.0,0.050
872.1,0.050
871.2,0.050
870.3,0.050
869.4,0.050
868.5,0.050
867.6,0.050
866.7,0.050
865.8,0.050
864.9,0.050
864.0,0.049
863.1,0.049
862.2,0.049
861.3,0.049
860.4,0.049
859.5,0.049
858.6,0.049
857.7,0.049
856.8,0.050
855.9,0.050
855.0,0.050
854.1,0.050
853.2,0.050
852.3,0.050
851.4,0.050
850.5,0.050
849.6,0.048
848.7,0.048
847.8,0.048
846.9,0.047
846.0,0.048
845.1,0.048
844.2,0.048
843.3,0.048
842.4,0.050
841.5,0.050
840.6,0.050
839.7,0.050
838.8,0.050
837.9,0.050
837.0,0.050
836.1,0.050
835.2,0.048
834.3,0.048
833.4,0.048
832.5,0.048
831.6,0.047
830.7,0.047
829.8,0.047
828.9,0.047
828.0,0.049
827.1,0.049
826.2,0.049
825.3,0.049
824.4,0.049
823.5,0.049
822.6,0.050
821.7,0.050
820.8,0.047
819.9,0.047
819.0,0.047
818.1,0.047
817.2,0.048
816.3,0.048
815.4,0.047
814.5,0.047
813.6,0.050
812.7,0.050
811.8,0.050
810.9,0.050
810.0,0.049
809.1,0.049
808.2,0.049
807.3,0.048
806.4,0.048
805.5,0.048
804.6,0.048
803.7,0.048
802.8,0.046
801.9,0.046
801.0,0.046
800.1,0.045
799.2,0.048
798.3,0.048
797.4,0.048
796.5,0.048
795.6,0.046
794.7,0.046
793.8,0.046
792.9,0.046
792.0,0.046
791.1,0.046
790.2,0.046
789.3,0.045
788.4,0.044
787.5,0.044
786.6,0.045
785.7,0.045
784.8,0.045
783.9,0.045
783.0,0.045
782.1,0.045
781.2,0.045
780.3,0.045
779.4,0.044
778.5,0.044
777.6,0.044
776.7,0.044
775.8,0.044
774.9,0.044
774.0,0.044
773.1,0.043
772.2,0.043
771.3,0.043
770.4,0.043
769.5,0.043
768.6,0.043
767.7,0.043
766.8,0.042
765.9,0.042
765.0,0.042
764.1,0.042
763.2,0.042
762.3,0.042
761.4,0.042
760.5,0.042
759.6,0.041
758.7,0.041
757.8,0.041
756.9,0.041
756.0,0.041
755.1,0.041
754.2,0.041
753.3,0.041
752.4,0.040
751.5,0.040
750.6,0.040
749.7,0.040
748.8,0.040
747.9,0.040
747.0,0.040
746.1,0.040
745.2,0.039
744.3,0.039
743.4,0.039
742.5,0.039
741.6,0.039
740.7,0.039
739.8,0.039
738.9,0.039
738.0,0.039
737.1,0.038
736.2,0.038
735.3,0.038
734.4,0.038
733.5,0.038
732.6,0.038
731.7,0.038
730.8,0.038
729.9,0.038
729.0,0.037
728.1,0.037
727.2,0.037
726.3,0.037
725.4,0.037
724.5,0.037
723.6,0.037
722.7,0.037
721.8,0.037
720.9,0.037
720.0,0.036
719.1,0.036
718.2,0.036
717.3,0.036
716.4,0.036
715.5,0.036
714.6,0.035
713.7,0.035
712.8,0.035
711.9,0.035
711.0,0.035
710.1,0.035
709.2,0.035
708.3,0.035
707.4,0.035
706.5,0.035
705.6,0.034
704.7,0.034
703.8,0.031
702.9,0.031
702.0,0.030
701.1,0.030
700.2,0.028
699.3,0.028
698.4,0.028
697.5,0.028
696.6,0.025
695.7,0.024
694.8,0.024
693.9,0.024
693.0,0.017
692.1,0.017
691.2,0.017
690.3,0.017
689.4,0.017
688.5,0.017
687.6,0.017
686.7,0.017
685.8,0.017
684.9,0.017
684.0,0.018
683.1,0.018
682.2,0.019
681.3,0.019
680.4,0.018
679.5,0.018
678.6,0.019
677.7,0.018
676.8,0.019
675.9,0.018
675.0,0.022
674.1,0.027
673.2,0.027
672.3,0.028
671.4,0.031
670.5,0.033
669.6,0.034
668.7,0.040
667.8,0.043
666.9,0.049
666.0,0.051
665.1,0.061
664.2,0.070
663.3,0.079
662.4,0.088
661.5,0.108
660.6,0.121
659.7,0.139
658.8,0.160
657.9,0.193
657.0,0.210
656.1,0.234
655.2,0.260
654.3,0.291
653.4,0.320
652.5,0.348
651.6,0.376
650.7,0.410
649.8,0.456
648.9,0.507
648.0,0.589
647.1,0.688
646.2,0.799
645.3,0.914
644.4,0.972
643.5,0.981
642.6,0.974
641.7,0.963
640.8,0.970
639.9,1.000
639.0,0.997
638.1,0.971
637.2,0.930
636.3,0.878
635.4,0.836
634.5,0.787
633.6,0.715
632.7,0.609
631.8,0.517
630.9,0.441
630.0,0.371
629.1,0.319
628.2,0.275
627.3,0.227
626.4,0.186
625.5,0.149
624.6,0.125
623.7,0.098
622.8,0.078
621.9,0.062
621.0,0.053
620.1,0.043
619.2,0.039
618.3,0.033
617.4,0.033
616.5,0.029
615.6,0.029
614.7,0.025
613.8,0.024
612.9,0.023
612.0,0.019
611.1,0.018
610.2,0.018
609.3,0.018
608.4,0.015
607.5,0.015
606.6,0.014
605.7,0.014
604.8,0.014
603.9,0.013
603.0,0.014
602.1,0.014
601.2,0.014
600.3,0.014
599.4,0.014
598.5,0.014
597.6,0.013
596.7,0.013
595.8,0.013
594.9,0.013
594.0,0.013
593.1,0.013
592.2,0.013
591.3,0.013
590.4,0.013
589.5,0.013
588.6,0.013
587.7,0.013
586.8,0.013
585.9,0.013
585.0,0.013
584.1,0.013
583.2,0.013
582.3,0.013
581.4,0.013
580.5,0.013
579.6,0.013
578.7,0.013
577.8,0.014
576.9,0.014
576.0,0.014
575.1,0.014
574.2,0.014
573.3,0.014
572.4,0.014
571.5,0.014
570.6,0.015
569.7,0.015
568.8,0.015
567.9,0.014
567.0,0.014
566.1,0.014
565.2,0.014
564.3,0.014
563.4,0.013
562.5,0.013
561.6,0.015
560.7,0.014
559.8,0.014
558.9,0.014
558.0,0.015
557.1,0.015
556.2,0.014
555.3,0.014
554.4,0.014
553.5,0.014
552.6,0.015
551.7,0.015
550.8,0.015
549.9,0.015
549.0,0.015
548.1,0.015
547.2,0.015
546.3,0.015
545.4,0.015
544.5,0.015
543.6,0.015
542.7,0.015
541.8,0.015
540.9,0.015
540.0,0.016
539.1,0.016
538.2,0.016
537.3,0.016
536.4,0.016
535.5,0.016
534.6,0.016
533.7,0.016
532.8,0.018
531.9,0.018
531.0,0.017
530.1,0.017
529.2,0.017
528.3,0.017
527.4,0.017
526.5,0.017
525.6,0.017
524.7,0.017
523.8,0.017
522.9,0.017
522.0,0.017
521.1,0.017
520.2,0.017
519.3,0.017
518.4,0.018
517.5,0.018
516.6,0.018
515.7,0.018
514.8,0.018
513.9,0.018
513.0,0.019
512.1,0.018
511.2,0.018
510.3,0.018
509.4,0.018
508.5,0.017
507.6,0.020
506.7,0.020
505.8,0.020
504.9,0.020
504.0,0.020
503.1,0.020
502.2,0.019
501.3,0.019
500.4,0.020
499.5,0.020
498.6,0.020
497.7,0.020
496.8,0.020
495.9,0.019
495.0,0.020
494.1,0.020
493.2,0.020
492.3,0.020
491.4,0.021
490.5,0.020
489.6,0.020
488.7,0.020
487.8,0.019
486.9,0.019
486.0,0.019
485.1,0.019
484.2,0.019
483.3,0.019
482.4,0.019
481.5,0.019
480.6,0.020
479.7,0.020
478.8,0.020
477.9,0.020
477.0,0.020
476.1,0.020
475.2,0.020
474.3,0.020
473.4,0.019
472.5,0.019
471.6,0.019
470.7,0.019
469.8,0.014
468.9,0.014
468.0,0.013
467.1,0.013
466.2,0.013
465.3,0.013
464.4,0.013
463.5,0.013
462.6,0.012
461.7,0.012
460.8,0.012
459.9,0.012
459.0,0.011
458.1,0.011
457.2,0.011
456.3,0.011
455.4,0.011
454.5,0.011
453.6,0.011
452.7,0.011
451.8,0.011
450.9,0.011
450.0,0.010
449.1,0.010
448.2,0.011
447.3,0.011
446.4,0.011
445.5,0.011
444.6,0.011
443.7,0.011
442.8,0.011
441.9,0.011
441.0,0.010
440.1,0.010
439.2,0.010
438.3,0.010
437.4,0.010
436.5,0.010
435.6,0.010
434.7,0.010
433.8,0.010
432.9,0.010
432.0,0.010
431.1,0.010
430.2,0.010
429.3,0.010
428.4,0.010
427.5,0.010
426.6,0.010
425.7,0.010
424.8,0.010
423.9,0.010
423.0,0.010
422.1,0.010
421.2,0.010
420.3,0.010
419.4,0.010
418.5,0.010
417.6,0.010
416.7,0.009
415.8,0.009
414.9,0.009
414.0,0.009
413.1,0.009
412.2,0.009
411.3,0.009
410.4,0.009
409.5,0.009
408.6,0.009
407.7,0.009
406.8,0.009
405.9,0.009
405.0,0.009
404.1,0.009
403.2,0.009
402.3,0.009
401.4,0.009
400.5,0.009
399.6,0.009
398.7,0.009
397.8,0.009
396.9,0.009
396.0,0.009
395.1,0.009
394.2,0.009
393.3,0.009
392.4,0.009
391.5,0.009
390.6,0.009
389.7,0.009
388.8,0.009
387.9,0.009
387.0,0.009
386.1,0.009
385.2,0.009
384.3,0.009
383.4,0.009
382.5,0.009
381.6,0.009
380.7,0.009
