wavelength,amplitude
955.5,0.664
954.52,0.580
953.54,0.507
952.56,0.457
951.5799999999999,0.474
950.6,0.473
949.62,0.460
948.64,0.467
947.66,0.478
946.68,0.448
945.6999999999999,0.469
944.72,0.483
943.74,0.469
942.76,0.462
941.78,0.484
940.8,0.462
939.8199999999999,0.453
938.84,0.426
937.86,0.411
936.88,0.470
935.9,0.466
934.92,0.458
933.9399999999999,0.487
932.96,0.464
931.98,0.531
931.0,0.528
930.02,0.510
929.04,0.500
928.06,0.480
927.0799999999999,0.429
926.1,0.459
925.12,0.463
924.14,0.452
923.16,0.453
922.18,0.466
921.1999999999999,0.497
920.22,0.504
919.24,0.494
918.26,0.481
917.28,0.478
916.3,0.396
915.3199999999999,0.391
914.34,0.430
913.36,0.399
912.38,0.417
911.4,0.439
910.42,0.437
909.4399999999999,0.418
908.46,0.496
907.48,0.450
906.5,0.476
905.52,0.567
904.54,0.496
903.56,0.452
902.5799999999999,0.445
901.6,0.451
900.62,0.476
899.64,0.462
898.66,0.428
897.68,0.427
896.6999999999999,0.432
895.72,0.444
894.74,0.458
893.76,0.459
892.78,0.448
891.8,0.438
890.8199999999999,0.383
889.84,0.431
888.86,0.401
887.88,0.413
886.9,0.450
885.92,0.453
884.9399999999999,0.477
883.96,0.452
882.98,0.400
882.0,0.370
881.02,0.406
880.04,0.425
879.06,0.457
878.0799999999999,0.479
877.1,0.506
876.12,0.457
875.14,0.425
874.16,0.423
873.18,0.416
872.1999999999999,0.399
871.22,0.452
870.24,0.434
869.26,0.430
868.28,0.484
867.3,0.440
866.3199999999999,0.389
865.34,0.385
864.36,0.370
863.38,0.375
862.4,0.370
861.42,0.360
860.4399999999999,0.404
859.46,0.424
858.48,0.424
857.5,0.374
856.52,0.419
855.54,0.400
854.56,0.439
853.58,0.524
852.6,0.406
851.62,0.407
850.64,0.413
849.66,0.402
848.68,0.411
847.6999999999999,0.411
846.72,0.451
845.74,0.455
844.76,0.391
843.78,0.434
842.8,0.386
841.8199999999999,0.381
840.84,0.368
839.86,0.390
838.88,0.419
837.9,0.393
836.92,0.403
835.9399999999999,0.428
834.96,0.396
833.98,0.372
833.0,0.372
832.02,0.388
831.04,0.418
830.06,0.444
829.08,0.405
828.1,0.449
827.12,0.441
826.14,0.428
825.16,0.432
824.18,0.416
823.1999999999999,0.432
822.22,0.416
821.24,0.424
820.26,0.430
819.28,0.420
818.3,0.409
817.3199999999999,0.435
816.34,0.467
815.36,0.459
814.38,0.442
813.4,0.421
812.42,0.404
811.4399999999999,0.384
810.46,0.392
809.48,0.381
808.5,0.391
807.52,0.394
806.54,0.383
805.56,0.393
804.58,0.419
803.6,0.412
802.62,0.385
801.64,0.392
800.66,0.423
799.68,0.403
798.6999999999999,0.380
797.72,0.373
796.74,0.354
795.76,0.366
794.78,0.374
793.8,0.379
792.8199999999999,0.375
791.84,0.388
790.86,0.369
789.88,0.375
788.9,0.426
787.92,0.357
786.9399999999999,0.351
785.96,0.359
784.98,0.372
784.0,0.410
783.02,0.387
782.04,0.378
781.06,0.345
780.08,0.337
779.1,0.381
778.12,0.379
777.14,0.413
776.16,0.397
775.18,0.378
774.1999999999999,0.402
773.22,0.365
772.24,0.377
771.26,0.364
770.28,0.322
769.3,0.349
768.3199999999999,0.378
767.34,0.386
766.36,0.388
765.38,0.406
764.4,0.382
763.42,0.391
762.4399999999999,0.371
761.46,0.368
760.48,0.360
759.5,0.314
758.52,0.328
757.54,0.335
756.56,0.326
755.58,0.352
754.6,0.357
753.62,0.351
752.64,0.362
751.66,0.370
750.68,0.345
749.6999999999999,0.371
748.72,0.377
747.74,0.380
746.76,0.394
745.78,0.411
744.8,0.407
743.8199999999999,0.399
742.84,0.404
741.86,0.375
740.88,0.366
739.9,0.391
738.92,0.372
737.9399999999999,0.367
736.96,0.390
735.98,0.387
735.0,0.406
734.02,0.421
733.04,0.417
732.06,0.446
731.08,0.465
730.1,0.450
729.12,0.422
728.14,0.429
727.16,0.439
726.18,0.439
725.1999999999999,0.425
724.22,0.416
723.24,0.434
722.26,0.367
721.28,0.375
720.3,0.389
719.3199999999999,0.395
718.34,0.454
717.36,0.481
716.38,0.468
715.4,0.459
714.42,0.451
713.4399999999999,0.496
712.46,0.509
711.48,0.516
710.5,0.536
709.52,0.534
708.54,0.534
707.56,0.544
706.58,0.577
705.6,0.597
704.62,0.599
703.64,0.610
702.66,0.612
701.68,0.617
700.6999999999999,0.642
699.72,0.641
698.74,0.650
697.76,0.666
696.78,0.693
695.8,0.721
694.8199999999999,0.719
693.84,0.724
692.86,0.703
691.88,0.694
690.9,0.719
689.92,0.729
688.9399999999999,0.727
687.96,0.733
686.98,0.743
686.0,0.732
685.02,0.709
684.04,0.722
683.06,0.731
682.08,0.723
681.1,0.705
680.12,0.714
679.14,0.699
678.16,0.701
677.18,0.719
676.1999999999999,0.760
675.22,0.749
674.24,0.740
673.26,0.721
672.28,0.745
671.3,0.725
670.3199999999999,0.715
669.34,0.711
668.36,0.710
667.38,0.715
666.4,0.693
665.42,0.704
664.4399999999999,0.720
663.46,0.700
662.48,0.698
661.5,0.713
660.52,0.710
659.54,0.686
658.56,0.687
657.58,0.706
656.6,0.761
655.62,0.736
654.64,0.724
653.66,0.729
652.68,0.745
651.6999999999999,0.722
650.72,0.726
649.74,0.736
648.76,0.728
647.78,0.712
646.8,0.726
645.8199999999999,0.754
644.84,0.761
643.86,0.757
642.88,0.721
641.9,0.720
640.92,0.735
639.9399999999999,0.737
638.96,0.744
637.98,0.753
637.0,0.759
636.02,0.747
635.04,0.728
634.06,0.766
633.08,0.765
632.1,0.750
631.12,0.760
630.14,0.766
629.16,0.740
628.18,0.726
627.2,0.708
626.22,0.708
625.24,0.731
624.26,0.735
623.28,0.764
622.3,0.781
621.3199999999999,0.780
620.34,0.767
619.36,0.736
618.38,0.736
617.4,0.720
616.42,0.694
615.4399999999999,0.667
614.46,0.675
613.48,0.683
612.5,0.703
611.52,0.717
610.54,0.701
609.56,0.714
608.58,0.704
607.6,0.685
606.62,0.668
605.64,0.700
604.66,0.656
603.68,0.653
602.7,0.672
601.72,0.687
600.74,0.702
599.76,0.662
598.78,0.654
597.8,0.675
596.8199999999999,0.667
595.84,0.709
594.86,0.715
593.88,0.694
592.9,0.654
591.92,0.654
590.9399999999999,0.649
589.96,0.656
588.98,0.686
588.0,0.725
587.02,0.761
586.04,0.731
585.06,0.703
584.08,0.702
583.1,0.721
582.12,0.759
581.14,0.752
580.16,0.779
579.18,0.793
578.2,0.801
577.22,0.792
576.24,0.800
575.26,0.817
574.28,0.852
573.3,0.910
572.3199999999999,0.909
571.34,0.902
570.36,0.904
569.38,0.906
568.4,0.901
567.42,0.911
566.4399999999999,0.917
565.46,0.904
564.48,0.903
563.5,0.868
562.52,0.863
561.54,0.887
560.56,0.885
559.58,0.870
558.6,0.872
557.62,0.885
556.64,0.903
555.66,0.901
554.68,0.910
553.7,0.910
552.72,0.902
551.74,0.886
550.76,0.876
549.78,0.866
548.8,0.885
547.8199999999999,0.910
546.84,0.899
545.86,0.860
544.88,0.858
543.9,0.896
542.92,0.906
541.9399999999999,0.928
540.96,0.941
539.98,0.929
539.0,0.896
538.02,0.907
537.04,0.938
536.06,0.909
535.08,0.903
534.1,0.896
533.12,0.885
532.14,0.897
531.16,0.902
530.18,0.912
529.2,0.918
528.22,0.926
527.24,0.924
526.26,0.954
525.28,0.957
524.3,0.978
523.3199999999999,0.992
522.34,1.000
521.36,0.956
520.38,0.965
519.4,0.975
518.42,0.978
517.4399999999999,0.948
516.46,0.939
515.48,0.942
514.5,0.969
513.52,0.986
512.54,0.987
511.56,0.966
510.58,0.966
509.59999999999997,0.940
508.62,0.921
507.64,0.921
506.65999999999997,0.899
505.68,0.889
504.7,0.868
503.71999999999997,0.847
502.74,0.807
501.76,0.816
500.78,0.808
499.8,0.793
498.82,0.782
497.84,0.771
496.86,0.770
495.88,0.759
494.9,0.731
493.92,0.705
492.94,0.710
491.96,0.693
490.98,0.692
490.0,0.688
489.02,0.669
488.03999999999996,0.675
487.06,0.657
486.08,0.654
485.09999999999997,0.649
484.12,0.665
483.14,0.662
482.15999999999997,0.662
481.18,0.658
480.2,0.673
479.21999999999997,0.683
478.24,0.689
477.26,0.685
476.28,0.676
475.3,0.669
474.32,0.645
473.34,0.627
472.36,0.625
471.38,0.634
470.4,0.644
469.42,0.610
468.44,0.605
467.46,0.605
466.48,0.616
465.5,0.577
464.52,0.562
463.53999999999996,0.570
462.56,0.567
461.58,0.550
460.59999999999997,0.528
459.62,0.507
458.64,0.495
457.65999999999997,0.475
456.68,0.470
455.7,0.461
454.71999999999997,0.450
453.74,0.430
452.76,0.427
451.78,0.420
450.8,0.410
449.82,0.395
448.84,0.391
447.86,0.398
446.88,0.380
445.9,0.381
444.92,0.376
443.94,0.373
442.96,0.378
441.98,0.355
441.0,0.352
440.02,0.341
439.03999999999996,0.340
438.06,0.339
437.08,0.346
436.09999999999997,0.335
435.12,0.331
434.14,0.320
433.15999999999997,0.321
432.18,0.337
431.2,0.309
430.21999999999997,0.288
429.24,0.304
428.26,0.293
427.28,0.300
426.3,0.291
425.32,0.290
424.34,0.287
423.36,0.280
422.38,0.274
421.4,0.273
420.42,0.271
419.44,0.261
418.46,0.285
417.48,0.261
416.5,0.248
415.52,0.250
414.54,0.253
413.56,0.264
412.58,0.250
411.59999999999997,0.243
410.62,0.221
409.64,0.227
408.65999999999997,0.236
407.68,0.235
406.7,0.240
405.71999999999997,0.242
404.74,0.251
403.76,0.247
402.78,0.217
401.8,0.213
400.82,0.204
399.84,0.206
398.86,0.207
397.88,0.209
396.9,0.199
395.92,0.208
394.94,0.234
393.96,0.211
392.98,0.191
392.0,0.201
391.02,0.212
390.04,0.206
389.06,0.187
388.08,0.184
387.09999999999997,0.194
386.12,0.193
385.14,0.201
384.15999999999997,0.205
383.18,0.195
382.2,0.202
381.21999999999997,0.203
380.24,0.190
