wavelength,amplitude
956.48,0.582
955.5,0.524
954.52,0.472
953.54,0.440
952.56,0.423
951.5799999999999,0.439
950.6,0.400
949.62,0.348
948.64,0.302
947.66,0.267
946.68,0.253
945.6999999999999,0.246
944.72,0.248
943.74,0.256
942.76,0.274
941.78,0.308
940.8,0.361
939.8199999999999,0.399
938.84,0.405
937.86,0.349
936.88,0.290
935.9,0.244
934.92,0.212
933.9399999999999,0.199
932.96,0.203
931.98,0.248
931.0,0.339
930.02,0.482
929.04,0.705
928.06,0.935
927.0799999999999,1.000
926.1,0.937
925.12,0.795
924.14,0.623
923.16,0.471
922.18,0.357
921.1999999999999,0.279
920.22,0.243
919.24,0.253
918.26,0.222
917.28,0.182
916.3,0.145
915.3199999999999,0.118
914.34,0.091
913.36,0.076
912.38,0.066
911.4,0.060
910.42,0.059
909.4399999999999,0.055
908.46,0.054
907.48,0.055
906.5,0.054
905.52,0.055
904.54,0.053
903.56,0.050
902.5799999999999,0.049
901.6,0.047
900.62,0.047
899.64,0.050
898.66,0.055
897.68,0.058
896.6999999999999,0.061
895.72,0.058
894.74,0.058
893.76,0.056
892.78,0.055
891.8,0.058
890.8199999999999,0.070
889.84,0.092
888.86,0.127
887.88,0.156
886.9,0.148
885.92,0.120
884.9399999999999,0.093
883.96,0.072
882.98,0.061
882.0,0.057
881.02,0.058
880.04,0.056
879.06,0.055
878.0799999999999,0.056
877.1,0.051
876.12,0.052
875.14,0.052
874.16,0.050
873.18,0.050
872.1999999999999,0.052
871.22,0.061
870.24,0.072
869.26,0.088
868.28,0.104
867.3,0.114
866.3199999999999,0.146
865.34,0.181
864.36,0.205
863.38,0.206
862.4,0.180
861.42,0.143
860.4399999999999,0.113
859.46,0.101
858.48,0.099
857.5,0.103
856.52,0.109
855.54,0.132
854.56,0.168
853.58,0.232
852.6,0.392
851.62,0.582
850.64,0.726
849.66,0.716
848.68,0.595
847.6999999999999,0.448
846.72,0.304
845.74,0.188
844.76,0.118
843.78,0.097
842.8,0.080
841.8199999999999,0.071
840.84,0.067
839.86,0.069
838.88,0.058
837.9,0.052
836.92,0.049
835.9399999999999,0.045
834.96,0.051
833.98,0.047
833.0,0.044
832.02,0.043
831.04,0.042
830.06,0.038
829.08,0.036
828.1,0.036
827.12,0.033
826.14,0.036
825.16,0.035
824.18,0.035
823.1999999999999,0.035
822.22,0.034
821.24,0.036
820.26,0.035
819.28,0.033
818.3,0.032
817.3199999999999,0.033
816.34,0.031
815.36,0.034
814.38,0.035
813.4,0.032
812.42,0.032
811.4399999999999,0.032
810.46,0.034
809.48,0.035
808.5,0.035
807.52,0.031
806.54,0.029
805.56,0.031
804.58,0.033
803.6,0.033
802.62,0.030
801.64,0.030
800.66,0.033
799.68,0.034
798.6999999999999,0.031
797.72,0.032
796.74,0.029
795.76,0.028
794.78,0.029
793.8,0.029
792.8199999999999,0.030
791.84,0.031
790.86,0.029
789.88,0.030
788.9,0.030
787.92,0.028
786.9399999999999,0.029
785.96,0.030
784.98,0.032
784.0,0.030
783.02,0.028
782.04,0.027
781.06,0.027
780.08,0.029
779.1,0.030
778.12,0.028
777.14,0.027
776.16,0.027
775.18,0.026
774.1999999999999,0.024
773.22,0.026
772.24,0.027
771.26,0.025
770.28,0.024
769.3,0.027
768.3199999999999,0.027
767.34,0.027
766.36,0.027
765.38,0.026
764.4,0.025
763.42,0.024
762.4399999999999,0.023
761.46,0.024
760.48,0.026
759.5,0.027
758.52,0.026
757.54,0.025
756.56,0.027
755.58,0.025
754.6,0.026
753.62,0.026
752.64,0.027
751.66,0.026
750.68,0.024
749.6999999999999,0.024
748.72,0.025
747.74,0.024
746.76,0.027
745.78,0.028
744.8,0.027
743.8199999999999,0.025
742.84,0.024
741.86,0.024
740.88,0.023
739.9,0.024
738.92,0.024
737.9399999999999,0.026
736.96,0.024
735.98,0.025
735.0,0.025
734.02,0.025
733.04,0.023
732.06,0.023
731.08,0.023
730.1,0.023
729.12,0.024
728.14,0.026
727.16,0.027
726.18,0.027
725.1999999999999,0.026
724.22,0.026
723.24,0.027
722.26,0.026
721.28,0.026
720.3,0.025
719.3199999999999,0.024
718.34,0.024
717.36,0.027
716.38,0.028
715.4,0.027
714.42,0.027
713.4399999999999,0.027
712.46,0.025
711.48,0.024
710.5,0.026
709.52,0.026
708.54,0.027
707.56,0.027
706.58,0.027
705.6,0.027
704.62,0.025
703.64,0.026
702.66,0.025
701.68,0.025
700.6999999999999,0.025
699.72,0.024
698.74,0.023
697.76,0.022
696.78,0.023
695.8,0.024
694.8199999999999,0.025
693.84,0.025
692.86,0.026
691.88,0.026
690.9,0.027
689.92,0.024
688.9399999999999,0.023
687.96,0.022
686.98,0.024
686.0,0.025
685.02,0.023
684.04,0.024
683.06,0.022
682.08,0.022
681.1,0.022
680.12,0.023
679.14,0.024
678.16,0.023
677.18,0.024
676.1999999999999,0.023
675.22,0.023
674.24,0.022
673.26,0.022
672.28,0.022
671.3,0.021
670.3199999999999,0.021
669.34,0.023
668.36,0.023
667.38,0.022
666.4,0.021
665.42,0.020
664.4399999999999,0.020
663.46,0.020
662.48,0.020
661.5,0.022
660.52,0.022
659.54,0.022
658.56,0.022
657.58,0.021
656.6,0.021
655.62,0.020
654.64,0.021
653.66,0.019
652.68,0.018
651.6999999999999,0.019
650.72,0.019
649.74,0.018
648.76,0.017
647.78,0.020
646.8,0.021
645.8199999999999,0.020
644.84,0.019
643.86,0.023
642.88,0.022
641.9,0.022
640.92,0.023
639.9399999999999,0.023
638.96,0.023
637.98,0.022
637.0,0.022
636.02,0.021
635.04,0.021
634.06,0.022
633.08,0.021
632.1,0.022
631.12,0.022
630.14,0.021
629.16,0.021
628.18,0.022
627.2,0.025
626.22,0.032
625.24,0.042
624.26,0.041
623.28,0.031
622.3,0.022
621.3199999999999,0.020
620.34,0.018
619.36,0.019
618.38,0.019
617.4,0.019
616.42,0.018
615.4399999999999,0.017
614.46,0.019
613.48,0.019
612.5,0.020
611.52,0.020
610.54,0.020
609.56,0.017
608.58,0.017
607.6,0.017
606.62,0.018
605.64,0.019
604.66,0.020
603.68,0.020
602.7,0.020
601.72,0.019
600.74,0.019
599.76,0.017
598.78,0.017
597.8,0.016
596.8199999999999,0.016
595.84,0.018
594.86,0.019
593.88,0.021
592.9,0.021
591.92,0.020
590.9399999999999,0.024
589.96,0.028
588.98,0.028
588.0,0.021
587.02,0.019
586.04,0.019
585.06,0.018
584.08,0.020
583.1,0.018
582.12,0.017
581.14,0.016
580.16,0.015
579.18,0.016
578.2,0.016
577.22,0.017
576.24,0.019
575.26,0.020
574.28,0.021
573.3,0.020
572.3199999999999,0.018
571.34,0.018
570.36,0.016
569.38,0.015
568.4,0.016
567.42,0.017
566.4399999999999,0.019
565.46,0.018
564.48,0.020
563.5,0.018
562.52,0.017
561.54,0.017
560.56,0.017
559.58,0.018
558.6,0.018
557.62,0.017
556.64,0.015
555.66,0.014
554.68,0.015
553.7,0.015
552.72,0.015
551.74,0.016
550.76,0.016
549.78,0.015
548.8,0.016
547.8199999999999,0.016
546.84,0.017
545.86,0.017
544.88,0.016
543.9,0.016
542.92,0.017
541.9399999999999,0.016
540.96,0.016
539.98,0.016
539.0,0.016
538.02,0.016
537.04,0.017
536.06,0.014
535.08,0.015
534.1,0.016
533.12,0.016
532.14,0.015
531.16,0.015
530.18,0.015
529.2,0.015
528.22,0.015
527.24,0.015
526.26,0.015
525.28,0.015
524.3,0.015
523.3199999999999,0.014
522.34,0.015
521.36,0.015
520.38,0.016
519.4,0.016
518.42,0.015
517.4399999999999,0.015
516.46,0.015
515.48,0.015
514.5,0.015
513.52,0.015
512.54,0.016
511.56,0.015
510.58,0.015
509.59999999999997,0.017
508.62,0.016
507.64,0.017
506.65999999999997,0.017
505.68,0.017
504.7,0.017
503.71999999999997,0.016
502.74,0.016
501.76,0.017
500.78,0.017
499.8,0.016
498.82,0.015
497.84,0.015
496.86,0.015
495.88,0.015
494.9,0.016
493.92,0.016
492.94,0.015
491.96,0.015
490.98,0.015
490.0,0.015
489.02,0.014
488.03999999999996,0.014
487.06,0.014
486.08,0.014
485.09999999999997,0.015
484.12,0.016
483.14,0.015
482.15999999999997,0.015
481.18,0.016
480.2,0.015
479.21999999999997,0.016
478.24,0.017
477.26,0.016
476.28,0.016
475.3,0.016
474.32,0.017
473.34,0.017
472.36,0.017
471.38,0.016
470.4,0.017
469.42,0.018
468.44,0.018
467.46,0.018
466.48,0.018
465.5,0.019
464.52,0.018
463.53999999999996,0.018
462.56,0.018
461.58,0.019
460.59999999999997,0.020
459.62,0.020
458.64,0.021
457.65999999999997,0.021
456.68,0.021
455.7,0.020
454.71999999999997,0.021
453.74,0.022
452.76,0.024
451.78,0.023
450.8,0.022
449.82,0.022
448.84,0.022
447.86,0.024
446.88,0.021
445.9,0.020
444.92,0.019
443.94,0.018
442.96,0.018
441.98,0.018
441.0,0.018
440.02,0.018
439.03999999999996,0.018
438.06,0.017
437.08,0.017
436.09999999999997,0.017
435.12,0.018
434.14,0.016
433.15999999999997,0.016
432.18,0.015
431.2,0.016
430.21999999999997,0.016
429.24,0.015
428.26,0.015
427.28,0.015
426.3,0.015
425.32,0.016
424.34,0.015
423.36,0.014
422.38,0.014
421.4,0.014
420.42,0.015
419.44,0.014
418.46,0.016
417.48,0.015
416.5,0.015
415.52,0.015
414.54,0.015
413.56,0.014
412.58,0.014
411.59999999999997,0.014
410.62,0.015
409.64,0.014
408.65999999999997,0.014
407.68,0.015
406.7,0.015
405.71999999999997,0.016
404.74,0.015
403.76,0.014
402.78,0.014
401.8,0.013
400.82,0.013
399.84,0.012
398.86,0.012
397.88,0.012
396.9,0.012
395.92,0.012
394.94,0.012
393.96,0.012
392.98,0.010
392.0,0.012
391.02,0.012
390.04,0.012
389.06,0.012
388.08,0.012
387.09999999999997,0.012
386.12,0.012
385.14,0.012
384.15999999999997,0.012
383.18,0.012
382.2,0.012
381.21999999999997,0.012
380.24,0.012
