wavelength,amplitude
887.705,0.274
886.7950000000001,0.252
885.885,0.223
884.975,0.193
884.065,0.167
883.1550000000001,0.145
882.245,0.128
881.335,0.116
880.4250000000001,0.107
879.515,0.105
878.605,0.111
877.695,0.121
876.7850000000001,0.135
875.875,0.152
874.965,0.173
874.0550000000001,0.213
873.145,0.299
872.235,0.423
871.325,0.584
870.4150000000001,0.763
869.505,0.892
868.595,0.968
867.6850000000001,1.000
866.775,0.988
865.865,0.953
864.955,0.886
864.0450000000001,0.797
863.135,0.700
862.225,0.601
861.315,0.491
860.405,0.400
859.495,0.342
858.585,0.314
857.6750000000001,0.331
856.765,0.393
855.855,0.475
854.945,0.560
854.0350000000001,0.623
853.125,0.648
852.215,0.640
851.3050000000001,0.609
850.395,0.566
849.485,0.514
848.575,0.465
847.6650000000001,0.435
846.755,0.423
845.845,0.420
844.9350000000001,0.415
844.025,0.401
843.115,0.381
842.205,0.353
841.2950000000001,0.311
840.385,0.262
839.475,0.213
838.565,0.169
837.655,0.132
836.745,0.103
835.835,0.081
834.9250000000001,0.069
834.015,0.057
833.105,0.049
832.195,0.043
831.2850000000001,0.042
830.375,0.042
829.465,0.042
828.5550000000001,0.041
827.645,0.045
826.735,0.045
825.825,0.045
824.9150000000001,0.045
824.005,0.045
823.095,0.045
822.1850000000001,0.048
821.275,0.048
820.365,0.050
819.455,0.055
818.5450000000001,0.062
817.635,0.083
816.725,0.117
815.815,0.166
814.905,0.226
813.995,0.283
813.085,0.320
812.1750000000001,0.328
811.265,0.315
810.355,0.291
809.445,0.250
808.5350000000001,0.206
807.625,0.172
806.715,0.150
805.8050000000001,0.144
804.895,0.191
803.985,0.301
803.075,0.432
802.1650000000001,0.558
801.255,0.649
800.345,0.649
799.4350000000001,0.618
798.525,0.558
797.615,0.479
796.705,0.380
795.7950000000001,0.291
794.885,0.210
793.975,0.147
793.065,0.107
792.155,0.078
791.245,0.066
790.335,0.061
789.4250000000001,0.066
788.515,0.087
787.605,0.132
786.695,0.200
785.7850000000001,0.282
784.875,0.362
783.965,0.411
783.0550000000001,0.411
782.145,0.380
781.235,0.333
780.325,0.274
779.4150000000001,0.212
778.505,0.156
777.595,0.108
776.6850000000001,0.076
775.775,0.057
774.865,0.047
773.955,0.042
773.0450000000001,0.042
772.135,0.049
771.225,0.061
770.315,0.095
769.405,0.135
768.495,0.171
767.585,0.197
766.6750000000001,0.204
765.765,0.188
764.855,0.163
763.945,0.134
763.0350000000001,0.104
762.125,0.077
761.215,0.058
760.3050000000001,0.043
759.395,0.035
758.485,0.030
757.575,0.029
756.6650000000001,0.031
755.755,0.036
754.845,0.044
753.9350000000001,0.050
753.025,0.054
752.115,0.055
751.205,0.051
750.2950000000001,0.047
749.385,0.043
748.475,0.035
747.565,0.029
746.655,0.026
745.745,0.023
744.835,0.022
743.9250000000001,0.021
743.015,0.020
742.105,0.019
741.195,0.019
740.2850000000001,0.020
739.375,0.022
738.465,0.025
737.5550000000001,0.029
736.645,0.032
735.735,0.032
734.825,0.029
733.9150000000001,0.027
733.005,0.025
732.095,0.025
731.1850000000001,0.030
730.275,0.040
729.365,0.054
728.455,0.074
727.5450000000001,0.102
726.635,0.109
725.725,0.110
724.815,0.102
723.905,0.089
722.995,0.071
722.085,0.053
721.1750000000001,0.040
720.265,0.031
719.355,0.027
718.445,0.029
717.535,0.038
716.625,0.060
715.715,0.089
714.8050000000001,0.122
713.895,0.141
712.985,0.147
712.075,0.138
711.1650000000001,0.119
710.255,0.091
709.345,0.067
708.4350000000001,0.049
707.525,0.034
706.615,0.024
705.705,0.021
704.7950000000001,0.019
703.885,0.018
702.975,0.017
702.065,0.018
701.155,0.016
700.245,0.016
699.335,0.016
698.4250000000001,0.015
697.515,0.016
696.605,0.015
695.695,0.015
694.785,0.015
693.875,0.015
692.965,0.014
692.0550000000001,0.014
691.145,0.014
690.235,0.014
689.325,0.014
688.4150000000001,0.015
687.505,0.014
686.595,0.014
685.6850000000001,0.015
684.775,0.015
683.865,0.015
682.955,0.015
682.0450000000001,0.016
681.135,0.016
680.225,0.016
679.315,0.015
678.405,0.015
677.495,0.014
676.585,0.013
675.6750000000001,0.015
674.765,0.015
673.855,0.014
672.945,0.015
672.035,0.014
671.125,0.014
670.215,0.014
669.3050000000001,0.014
668.395,0.014
667.485,0.014
666.575,0.014
665.6650000000001,0.014
664.755,0.014
663.845,0.014
662.9350000000001,0.015
662.025,0.015
661.115,0.014
660.205,0.014
659.2950000000001,0.014
658.385,0.015
657.475,0.014
656.565,0.014
655.655,0.015
654.745,0.014
653.835,0.016
652.9250000000001,0.016
652.015,0.015
651.105,0.015
650.195,0.015
649.285,0.016
648.375,0.016
647.465,0.016
646.5550000000001,0.016
645.645,0.016
644.735,0.016
643.825,0.016
642.9150000000001,0.015
642.005,0.015
641.095,0.015
640.1850000000001,0.016
639.275,0.016
638.365,0.016
637.455,0.016
636.5450000000001,0.016
635.635,0.015
634.725,0.015
633.815,0.014
632.905,0.014
631.995,0.015
631.085,0.014
630.1750000000001,0.015
629.265,0.015
628.355,0.015
627.445,0.015
626.535,0.015
625.625,0.015
624.715,0.014
623.8050000000001,0.015
622.895,0.014
621.985,0.015
621.075,0.015
620.1650000000001,0.015
619.255,0.015
618.345,0.014
617.4350000000001,0.015
616.525,0.014
615.615,0.014
614.705,0.014
613.7950000000001,0.014
612.885,0.015
611.975,0.015
611.065,0.014
610.155,0.014
609.245,0.014
608.335,0.014
607.4250000000001,0.014
606.515,0.014
605.605,0.016
604.695,0.016
603.785,0.016
602.875,0.017
601.965,0.015
601.0550000000001,0.015
600.145,0.015
599.235,0.015
598.325,0.015
597.415,0.016
596.505,0.015
595.595,0.014
594.6850000000001,0.013
593.775,0.013
592.865,0.014
591.955,0.014
591.0450000000001,0.014
590.135,0.015
589.225,0.014
588.315,0.014
587.405,0.014
586.495,0.013
585.585,0.014
584.6750000000001,0.013
583.765,0.014
582.855,0.015
581.945,0.015
581.035,0.016
580.125,0.020
579.215,0.039
578.3050000000001,0.075
577.395,0.114
576.485,0.149
575.575,0.171
574.665,0.173
573.755,0.162
572.845,0.138
571.9350000000001,0.109
571.025,0.079
570.115,0.054
569.205,0.034
568.2950000000001,0.023
567.385,0.018
566.475,0.017
565.565,0.016
564.655,0.015
563.745,0.015
562.835,0.015
561.9250000000001,0.015
561.015,0.015
560.105,0.014
559.195,0.014
558.285,0.014
557.375,0.014
556.465,0.014
555.5550000000001,0.014
554.645,0.014
553.735,0.013
552.825,0.013
551.915,0.013
551.005,0.013
550.095,0.014
549.1850000000001,0.015
548.275,0.016
547.365,0.016
546.455,0.018
545.5450000000001,0.022
544.635,0.054
543.725,0.135
542.815,0.230
541.905,0.311
540.995,0.337
540.085,0.327
539.1750000000001,0.302
538.265,0.265
537.355,0.216
536.445,0.157
535.535,0.104
534.625,0.058
533.715,0.031
532.8050000000001,0.018
531.895,0.016
530.985,0.017
530.075,0.018
529.165,0.019
528.255,0.021
527.345,0.019
526.4350000000001,0.016
525.525,0.014
524.615,0.012
523.705,0.012
522.7950000000001,0.012
521.885,0.011
520.975,0.011
520.065,0.011
519.155,0.011
518.245,0.011
517.335,0.011
516.4250000000001,0.012
515.515,0.012
514.605,0.012
513.695,0.012
512.785,0.012
511.875,0.012
510.96500000000003,0.012
510.055,0.012
509.14500000000004,0.012
508.235,0.012
507.32500000000005,0.012
506.415,0.011
505.505,0.012
504.595,0.012
503.685,0.012
502.77500000000003,0.012
501.865,0.012
500.95500000000004,0.013
500.045,0.013
499.135,0.012
498.225,0.012
497.315,0.012
496.40500000000003,0.011
495.495,0.011
494.58500000000004,0.011
493.675,0.011
492.76500000000004,0.011
491.855,0.011
490.945,0.011
490.035,0.012
489.125,0.012
488.21500000000003,0.013
487.305,0.014
486.39500000000004,0.016
485.485,0.019
484.575,0.022
483.665,0.021
482.755,0.019
481.845,0.018
480.935,0.016
480.02500000000003,0.014
479.115,0.013
478.20500000000004,0.012
477.295,0.012
476.385,0.013
475.475,0.012
474.565,0.013
473.65500000000003,0.013
472.745,0.013
471.83500000000004,0.013
470.925,0.014
470.01500000000004,0.013
469.105,0.014
468.195,0.013
467.285,0.012
466.375,0.013
465.46500000000003,0.013
464.555,0.013
463.64500000000004,0.013
462.735,0.014
461.825,0.014
460.915,0.014
460.005,0.014
459.095,0.014
458.185,0.014
457.27500000000003,0.015
456.365,0.015
455.45500000000004,0.014
454.545,0.015
453.635,0.016
452.725,0.015
451.815,0.015
450.90500000000003,0.015
449.995,0.016
449.08500000000004,0.015
448.175,0.015
447.26500000000004,0.016
446.355,0.017
445.445,0.018
444.535,0.018
443.625,0.018
442.71500000000003,0.017
441.805,0.017
440.89500000000004,0.018
439.985,0.018
439.075,0.019
438.165,0.020
437.255,0.022
436.345,0.026
435.435,0.032
434.52500000000003,0.044
433.615,0.063
432.70500000000004,0.101
431.795,0.185
430.885,0.267
429.975,0.315
429.065,0.328
428.15500000000003,0.323
427.245,0.305
426.33500000000004,0.273
425.425,0.222
424.515,0.159
423.605,0.107
422.695,0.077
421.785,0.057
420.875,0.048
419.96500000000003,0.044
419.055,0.042
418.14500000000004,0.043
417.235,0.042
416.325,0.041
415.415,0.039
414.505,0.039
413.595,0.040
412.685,0.040
411.77500000000003,0.040
410.865,0.038
409.95500000000004,0.036
409.045,0.033
408.135,0.031
407.225,0.029
406.315,0.031
405.40500000000003,0.039
404.495,0.053
403.58500000000004,0.077
402.675,0.110
401.765,0.150
400.855,0.193
399.945,0.232
399.035,0.259
398.125,0.252
397.21500000000003,0.230
396.305,0.193
395.39500000000004,0.150
394.485,0.106
393.575,0.071
392.665,0.047
391.755,0.032
390.845,0.025
389.935,0.021
389.02500000000003,0.018
388.115,0.017
387.20500000000004,0.016
386.295,0.015
385.385,0.013
384.475,0.012
383.565,0.011
382.65500000000003,0.011
381.745,0.011
380.83500000000004,0.010
