wavelength,amplitude
886.7950000000001,0.176
885.885,0.170
884.975,0.167
884.065,0.171
883.1550000000001,0.166
882.245,0.167
881.335,0.159
880.4250000000001,0.152
879.515,0.150
878.605,0.150
877.695,0.161
876.7850000000001,0.162
875.875,0.162
874.965,0.162
874.0550000000001,0.159
873.145,0.159
872.235,0.157
871.325,0.157
870.4150000000001,0.154
869.505,0.165
868.595,0.164
867.6850000000001,0.165
866.775,0.159
865.865,0.152
864.955,0.149
864.0450000000001,0.154
863.135,0.153
862.225,0.154
861.315,0.148
860.405,0.149
859.495,0.158
858.585,0.159
857.6750000000001,0.162
856.765,0.162
855.855,0.155
854.945,0.155
854.0350000000001,0.150
853.125,0.144
852.215,0.150
851.3050000000001,0.146
850.395,0.145
849.485,0.144
848.575,0.143
847.6650000000001,0.135
846.755,0.139
845.845,0.141
844.9350000000001,0.141
844.025,0.143
843.115,0.137
842.205,0.139
841.2950000000001,0.142
840.385,0.143
839.475,0.143
838.565,0.142
837.655,0.135
836.745,0.138
835.835,0.142
834.9250000000001,0.141
834.015,0.136
833.105,0.129
832.195,0.126
831.2850000000001,0.127
830.375,0.136
829.465,0.133
828.5550000000001,0.133
827.645,0.137
826.735,0.137
825.825,0.137
824.9150000000001,0.134
824.005,0.138
823.095,0.137
822.1850000000001,0.139
821.275,0.139
820.365,0.134
819.455,0.138
818.5450000000001,0.142
817.635,0.134
816.725,0.134
815.815,0.137
814.905,0.132
813.995,0.126
813.085,0.131
812.1750000000001,0.130
811.265,0.127
810.355,0.129
809.445,0.126
808.5350000000001,0.132
807.625,0.130
806.715,0.126
805.8050000000001,0.125
804.895,0.128
803.985,0.123
803.075,0.128
802.1650000000001,0.124
801.255,0.126
800.345,0.121
799.4350000000001,0.127
798.525,0.125
797.615,0.125
796.705,0.124
795.7950000000001,0.123
794.885,0.128
793.975,0.129
793.065,0.131
792.155,0.138
791.245,0.131
790.335,0.134
789.4250000000001,0.135
788.515,0.132
787.605,0.136
786.695,0.135
785.7850000000001,0.136
784.875,0.140
783.965,0.146
783.0550000000001,0.150
782.145,0.155
781.235,0.156
780.325,0.148
779.4150000000001,0.144
778.505,0.151
777.595,0.154
776.6850000000001,0.160
775.775,0.171
774.865,0.188
773.955,0.212
773.0450000000001,0.236
772.135,0.252
771.225,0.255
770.315,0.266
769.405,0.256
768.495,0.233
767.585,0.216
766.6750000000001,0.192
765.765,0.159
764.855,0.135
763.945,0.123
763.0350000000001,0.118
762.125,0.113
761.215,0.113
760.3050000000001,0.109
759.395,0.110
758.485,0.108
757.575,0.107
756.6650000000001,0.116
755.755,0.119
754.845,0.119
753.9350000000001,0.123
753.025,0.129
752.115,0.154
751.205,0.189
750.2950000000001,0.243
749.385,0.320
748.475,0.436
747.565,0.526
746.655,0.593
745.745,0.633
744.835,0.642
743.9250000000001,0.621
743.015,0.567
742.105,0.501
741.195,0.433
740.2850000000001,0.360
739.375,0.303
738.465,0.276
737.5550000000001,0.268
736.645,0.268
735.735,0.267
734.825,0.249
733.9150000000001,0.231
733.005,0.210
732.095,0.182
731.1850000000001,0.161
730.275,0.134
729.365,0.122
728.455,0.121
727.5450000000001,0.120
726.635,0.127
725.725,0.140
724.815,0.186
723.905,0.257
722.995,0.369
722.085,0.549
721.1750000000001,0.748
720.265,0.891
719.355,0.974
718.445,1.000
717.535,0.984
716.625,0.908
715.715,0.809
714.8050000000001,0.693
713.895,0.552
712.985,0.403
712.075,0.296
711.1650000000001,0.242
710.255,0.241
709.345,0.297
708.4350000000001,0.379
707.525,0.465
706.615,0.531
705.705,0.560
704.7950000000001,0.554
703.885,0.515
702.975,0.446
702.065,0.375
701.155,0.288
700.245,0.204
699.335,0.150
698.4250000000001,0.115
697.515,0.102
696.605,0.092
695.695,0.088
694.785,0.088
693.875,0.088
692.965,0.083
692.0550000000001,0.086
691.145,0.088
690.235,0.092
689.325,0.091
688.4150000000001,0.093
687.505,0.095
686.595,0.100
685.6850000000001,0.114
684.775,0.132
683.865,0.158
682.955,0.214
682.0450000000001,0.273
681.135,0.336
680.225,0.397
679.315,0.450
678.405,0.501
677.495,0.533
676.585,0.549
675.6750000000001,0.552
674.765,0.532
673.855,0.486
672.945,0.439
672.035,0.389
671.125,0.338
670.215,0.291
669.3050000000001,0.270
668.395,0.273
667.485,0.284
666.575,0.302
665.6650000000001,0.320
664.755,0.312
663.845,0.303
662.9350000000001,0.293
662.025,0.284
661.115,0.291
660.205,0.323
659.2950000000001,0.374
658.385,0.443
657.475,0.530
656.565,0.576
655.655,0.594
654.745,0.588
653.835,0.563
652.9250000000001,0.520
652.015,0.446
651.105,0.377
650.195,0.315
649.285,0.268
648.375,0.253
647.465,0.303
646.5550000000001,0.396
645.645,0.546
644.735,0.710
643.825,0.840
642.9150000000001,0.914
642.005,0.934
641.095,0.920
640.1850000000001,0.874
639.275,0.819
638.365,0.764
637.455,0.705
636.5450000000001,0.639
635.635,0.592
634.725,0.564
633.815,0.535
632.905,0.505
631.995,0.473
631.085,0.444
630.1750000000001,0.424
629.265,0.403
628.355,0.383
627.445,0.363
626.535,0.345
625.625,0.331
624.715,0.321
623.8050000000001,0.307
622.895,0.296
621.985,0.280
621.075,0.268
620.1650000000001,0.255
619.255,0.252
618.345,0.271
617.4350000000001,0.311
616.525,0.369
615.615,0.440
614.705,0.508
613.7950000000001,0.553
612.885,0.568
611.975,0.574
611.065,0.573
610.155,0.570
609.245,0.566
608.335,0.555
607.4250000000001,0.546
606.515,0.529
605.605,0.503
604.695,0.469
603.785,0.426
602.875,0.377
601.965,0.325
601.0550000000001,0.267
600.145,0.222
599.235,0.187
598.325,0.167
597.415,0.159
596.505,0.165
595.595,0.179
594.6850000000001,0.216
593.775,0.270
592.865,0.330
591.955,0.376
591.0450000000001,0.391
590.135,0.389
589.225,0.361
588.315,0.329
587.405,0.302
586.495,0.298
585.585,0.307
584.6750000000001,0.338
583.765,0.399
582.855,0.503
581.945,0.572
581.035,0.600
580.125,0.592
579.215,0.550
578.3050000000001,0.454
577.395,0.351
576.485,0.256
575.575,0.172
574.665,0.108
573.755,0.081
572.845,0.071
571.9350000000001,0.067
571.025,0.068
570.115,0.067
569.205,0.063
568.2950000000001,0.061
567.385,0.057
566.475,0.057
565.565,0.056
564.655,0.055
563.745,0.054
562.835,0.050
561.9250000000001,0.049
561.015,0.052
560.105,0.052
559.195,0.049
558.285,0.045
557.375,0.043
556.465,0.045
555.5550000000001,0.044
554.645,0.043
553.735,0.043
552.825,0.045
551.915,0.045
551.005,0.045
550.095,0.042
549.1850000000001,0.044
548.275,0.045
547.365,0.046
546.455,0.046
545.5450000000001,0.044
544.635,0.047
543.725,0.043
542.815,0.042
541.905,0.042
540.995,0.044
540.085,0.042
539.1750000000001,0.042
538.265,0.044
537.355,0.042
536.445,0.040
535.535,0.043
534.625,0.043
533.715,0.045
532.8050000000001,0.045
531.895,0.046
530.985,0.049
530.075,0.049
529.165,0.048
528.255,0.049
527.345,0.045
526.4350000000001,0.046
525.525,0.045
524.615,0.044
523.705,0.046
522.7950000000001,0.046
521.885,0.044
520.975,0.042
520.065,0.042
519.155,0.038
518.245,0.039
517.335,0.040
516.4250000000001,0.039
515.515,0.041
514.605,0.041
513.695,0.041
512.785,0.041
511.875,0.042
510.96500000000003,0.043
510.055,0.040
509.14500000000004,0.040
508.235,0.041
507.32500000000005,0.040
506.415,0.040
505.505,0.042
504.595,0.042
503.685,0.043
502.77500000000003,0.043
501.865,0.042
500.95500000000004,0.043
500.045,0.040
499.135,0.038
498.225,0.039
497.315,0.038
496.40500000000003,0.041
495.495,0.041
494.58500000000004,0.041
493.675,0.038
492.76500000000004,0.040
491.855,0.035
490.945,0.037
490.035,0.038
489.125,0.039
488.21500000000003,0.039
487.305,0.038
486.39500000000004,0.037
485.485,0.037
484.575,0.038
483.665,0.036
482.755,0.036
481.845,0.036
480.935,0.035
480.02500000000003,0.036
479.115,0.036
478.20500000000004,0.036
477.295,0.036
476.385,0.037
475.475,0.037
474.565,0.035
473.65500000000003,0.035
472.745,0.035
471.83500000000004,0.034
470.925,0.036
470.01500000000004,0.035
469.105,0.038
468.195,0.038
467.285,0.035
466.375,0.035
465.46500000000003,0.037
464.555,0.036
463.64500000000004,0.036
462.735,0.036
461.825,0.034
460.915,0.034
460.005,0.034
459.095,0.035
458.185,0.032
457.27500000000003,0.035
456.365,0.034
455.45500000000004,0.035
454.545,0.035
453.635,0.034
452.725,0.032
451.815,0.033
450.90500000000003,0.033
449.995,0.032
449.08500000000004,0.033
448.175,0.033
447.26500000000004,0.034
446.355,0.034
445.445,0.033
444.535,0.033
443.625,0.033
442.71500000000003,0.035
441.805,0.035
440.89500000000004,0.033
439.985,0.035
439.075,0.033
438.165,0.032
437.255,0.032
436.345,0.033
435.435,0.033
434.52500000000003,0.034
433.615,0.035
432.70500000000004,0.035
431.795,0.036
430.885,0.034
429.975,0.032
429.065,0.033
428.15500000000003,0.034
427.245,0.033
426.33500000000004,0.032
425.425,0.032
424.515,0.031
423.605,0.031
422.695,0.033
421.785,0.032
420.875,0.032
419.96500000000003,0.031
419.055,0.031
418.14500000000004,0.031
417.235,0.032
416.325,0.032
415.415,0.030
414.505,0.031
413.595,0.031
412.685,0.031
411.77500000000003,0.031
410.865,0.031
409.95500000000004,0.031
409.045,0.031
408.135,0.029
407.225,0.029
406.315,0.030
405.40500000000003,0.030
404.495,0.030
403.58500000000004,0.030
402.675,0.031
401.765,0.029
400.855,0.030
399.945,0.031
399.035,0.031
398.125,0.030
397.21500000000003,0.029
396.305,0.028
395.39500000000004,0.030
394.485,0.030
393.575,0.031
392.665,0.031
391.755,0.032
390.845,0.030
389.935,0.029
389.02500000000003,0.030
388.115,0.031
387.20500000000004,0.031
386.295,0.030
385.385,0.030
384.475,0.031
383.565,0.029
382.65500000000003,0.029
381.745,0.029
380.83500000000004,0.028
