wavelength,amplitude
953.05,0.122
952.0699999999999,0.119
951.09,0.121
950.11,0.123
949.13,0.123
948.15,0.121
947.17,0.132
946.1899999999999,0.133
945.21,0.138
944.23,0.132
943.25,0.132
942.27,0.142
941.29,0.149
940.31,0.148
939.3299999999999,0.143
938.35,0.145
937.37,0.148
936.39,0.147
935.41,0.153
934.43,0.154
933.4499999999999,0.157
932.47,0.153
931.49,0.152
930.51,0.151
929.53,0.150
928.55,0.155
927.5699999999999,0.158
926.59,0.161
925.61,0.166
924.63,0.169
923.65,0.185
922.67,0.195
921.6899999999999,0.202
920.71,0.210
919.73,0.220
918.75,0.220
917.77,0.222
916.79,0.226
915.81,0.223
914.8299999999999,0.226
913.85,0.230
912.87,0.228
911.89,0.229
910.91,0.208
909.93,0.198
908.9499999999999,0.187
907.97,0.174
906.99,0.172
906.01,0.163
905.03,0.149
904.05,0.144
903.0699999999999,0.149
902.09,0.151
901.11,0.155
900.13,0.165
899.15,0.174
898.17,0.185
897.1899999999999,0.191
896.21,0.210
895.23,0.229
894.25,0.229
893.27,0.230
892.29,0.234
891.31,0.237
890.3299999999999,0.247
889.35,0.246
888.37,0.225
887.39,0.238
886.41,0.233
885.43,0.227
884.4499999999999,0.225
883.47,0.230
882.49,0.241
881.51,0.269
880.53,0.317
879.55,0.387
878.5699999999999,0.490
877.59,0.588
876.61,0.691
875.63,0.778
874.65,0.862
873.67,0.937
872.6899999999999,0.980
871.71,1.000
870.73,0.993
869.75,0.959
868.77,0.908
867.79,0.842
866.81,0.765
865.83,0.680
864.85,0.616
863.87,0.545
862.89,0.517
861.91,0.514
860.93,0.536
859.9499999999999,0.570
858.97,0.665
857.99,0.761
857.01,0.847
856.03,0.901
855.05,0.948
854.0699999999999,0.970
853.09,0.975
852.11,0.961
851.13,0.940
850.15,0.870
849.17,0.772
848.1899999999999,0.685
847.21,0.604
846.23,0.526
845.25,0.508
844.27,0.489
843.29,0.508
842.31,0.557
841.33,0.637
840.35,0.721
839.37,0.792
838.39,0.854
837.41,0.903
836.43,0.927
835.4499999999999,0.937
834.47,0.909
833.49,0.866
832.51,0.809
831.53,0.731
830.55,0.646
829.5699999999999,0.568
828.59,0.510
827.61,0.478
826.63,0.468
825.65,0.496
824.67,0.550
823.6899999999999,0.626
822.71,0.706
821.73,0.752
820.75,0.792
819.77,0.822
818.79,0.835
817.81,0.802
816.83,0.762
815.85,0.687
814.87,0.613
813.89,0.549
812.91,0.486
811.93,0.428
810.9499999999999,0.397
809.97,0.385
808.99,0.380
808.01,0.408
807.03,0.443
806.05,0.477
805.0699999999999,0.495
804.09,0.499
803.11,0.498
802.13,0.478
801.15,0.445
800.17,0.404
799.1899999999999,0.354
798.21,0.300
797.23,0.259
796.25,0.228
795.27,0.212
794.29,0.197
793.31,0.195
792.33,0.194
791.35,0.190
790.37,0.190
789.39,0.185
788.41,0.182
787.43,0.177
786.4499999999999,0.166
785.47,0.150
784.49,0.133
783.51,0.125
782.53,0.116
781.55,0.109
780.5699999999999,0.099
779.59,0.099
778.61,0.100
777.63,0.100
776.65,0.095
775.67,0.098
774.6899999999999,0.091
773.71,0.090
772.73,0.092
771.75,0.090
770.77,0.088
769.79,0.084
768.81,0.081
767.83,0.079
766.85,0.077
765.87,0.083
764.89,0.079
763.91,0.080
762.93,0.081
761.9499999999999,0.080
760.97,0.074
759.99,0.073
759.01,0.073
758.03,0.071
757.05,0.084
756.0699999999999,0.096
755.09,0.117
754.11,0.137
753.13,0.156
752.15,0.185
751.17,0.200
750.1899999999999,0.206
749.21,0.208
748.23,0.196
747.25,0.197
746.27,0.198
745.29,0.213
744.31,0.245
743.33,0.294
742.35,0.349
741.37,0.398
740.39,0.437
739.41,0.470
738.43,0.484
737.4499999999999,0.477
736.47,0.460
735.49,0.441
734.51,0.426
733.53,0.440
732.55,0.484
731.5699999999999,0.547
730.59,0.617
729.61,0.671
728.63,0.702
727.65,0.707
726.67,0.693
725.6899999999999,0.663
724.71,0.626
723.73,0.603
722.75,0.606
721.77,0.631
720.79,0.672
719.81,0.734
718.83,0.759
717.85,0.773
716.87,0.761
715.89,0.725
714.91,0.677
713.93,0.607
712.9499999999999,0.561
711.97,0.540
710.99,0.542
710.01,0.564
709.03,0.582
708.05,0.590
707.0699999999999,0.584
706.09,0.558
705.11,0.514
704.13,0.474
703.15,0.448
702.17,0.439
701.1899999999999,0.454
700.21,0.468
699.23,0.487
698.25,0.490
697.27,0.483
696.29,0.457
695.31,0.421
694.33,0.390
693.35,0.371
692.37,0.365
691.39,0.374
690.41,0.387
689.43,0.395
688.4499999999999,0.399
687.47,0.384
686.49,0.358
685.51,0.334
684.53,0.316
683.55,0.305
682.5699999999999,0.301
681.59,0.309
680.61,0.319
679.63,0.322
678.65,0.310
677.67,0.286
676.6899999999999,0.268
675.71,0.246
674.73,0.238
673.75,0.235
672.77,0.234
671.79,0.234
670.81,0.231
669.83,0.220
668.85,0.206
667.87,0.191
666.89,0.183
665.91,0.174
664.93,0.167
663.9499999999999,0.165
662.97,0.162
661.99,0.162
661.01,0.165
660.03,0.167
659.05,0.182
658.0699999999999,0.185
657.09,0.191
656.11,0.199
655.13,0.204
654.15,0.217
653.17,0.235
652.1899999999999,0.260
651.21,0.291
650.23,0.304
649.25,0.322
648.27,0.324
647.29,0.326
646.31,0.333
645.33,0.340
644.35,0.362
643.37,0.372
642.39,0.379
641.41,0.384
640.43,0.381
639.4499999999999,0.397
638.47,0.421
637.49,0.447
636.51,0.468
635.53,0.484
634.55,0.485
633.5699999999999,0.496
632.59,0.515
631.61,0.537
630.63,0.557
629.65,0.566
628.67,0.569
627.6899999999999,0.568
626.71,0.572
625.73,0.575
624.75,0.583
623.77,0.582
622.79,0.570
621.81,0.557
620.83,0.549
619.85,0.541
618.87,0.531
617.89,0.514
616.91,0.476
615.93,0.441
614.95,0.404
613.97,0.369
612.99,0.352
612.01,0.315
611.03,0.280
610.05,0.242
609.0699999999999,0.196
608.09,0.149
607.11,0.113
606.13,0.083
605.15,0.066
604.17,0.055
603.1899999999999,0.052
602.21,0.047
601.23,0.048
600.25,0.047
599.27,0.048
598.29,0.049
597.31,0.053
596.33,0.056
595.35,0.057
594.37,0.061
593.39,0.064
592.41,0.069
591.43,0.073
590.45,0.076
589.47,0.090
588.49,0.098
587.51,0.111
586.53,0.123
585.55,0.134
584.5699999999999,0.152
583.59,0.160
582.61,0.173
581.63,0.183
580.65,0.188
579.67,0.196
578.6899999999999,0.204
577.71,0.208
576.73,0.214
575.75,0.220
574.77,0.231
573.79,0.245
572.81,0.252
571.83,0.258
570.85,0.261
569.87,0.252
568.89,0.239
567.91,0.214
566.93,0.181
565.95,0.151
564.97,0.118
563.99,0.098
563.01,0.079
562.03,0.071
561.05,0.063
560.0699999999999,0.061
559.09,0.058
558.11,0.057
557.13,0.060
556.15,0.064
555.17,0.068
554.1899999999999,0.077
553.21,0.093
552.23,0.105
551.25,0.124
550.27,0.141
549.29,0.154
548.31,0.159
547.33,0.165
546.35,0.156
545.37,0.144
544.39,0.131
543.41,0.116
542.43,0.098
541.45,0.086
540.47,0.079
539.49,0.078
538.51,0.080
537.53,0.082
536.55,0.086
535.5699999999999,0.092
534.59,0.093
533.61,0.094
532.63,0.086
531.65,0.083
530.67,0.078
529.6899999999999,0.073
528.71,0.066
527.73,0.063
526.75,0.062
525.77,0.062
524.79,0.062
523.81,0.066
522.83,0.068
521.85,0.070
520.87,0.074
519.89,0.082
518.91,0.093
517.93,0.094
516.95,0.093
515.97,0.092
514.99,0.087
514.01,0.075
513.03,0.071
512.05,0.069
511.07,0.066
510.09,0.067
509.11,0.071
508.13,0.076
507.15,0.078
506.17,0.077
505.19,0.074
504.21,0.074
503.23,0.075
502.25,0.077
501.27,0.079
500.28999999999996,0.084
499.31,0.085
498.33,0.088
497.34999999999997,0.088
496.37,0.089
495.39,0.085
494.40999999999997,0.083
493.43,0.084
492.45,0.093
491.46999999999997,0.103
490.49,0.114
489.51,0.116
488.53,0.114
487.55,0.105
486.57,0.094
485.59,0.089
484.61,0.092
483.63,0.100
482.65,0.113
481.67,0.124
480.69,0.127
479.71,0.122
478.73,0.114
477.75,0.105
476.77,0.098
475.78999999999996,0.103
474.81,0.114
473.83,0.136
472.84999999999997,0.152
471.87,0.158
470.89,0.158
469.90999999999997,0.150
468.93,0.139
467.95,0.127
466.96999999999997,0.130
465.99,0.138
465.01,0.145
464.03,0.146
463.05,0.141
462.07,0.137
461.09,0.146
460.11,0.161
459.13,0.186
458.15,0.211
457.17,0.218
456.19,0.205
455.21,0.178
454.23,0.159
453.25,0.161
452.27,0.187
451.28999999999996,0.228
450.31,0.271
449.33,0.306
448.34999999999997,0.313
447.37,0.300
446.39,0.288
445.40999999999997,0.285
444.43,0.297
443.45,0.324
442.46999999999997,0.340
441.49,0.345
440.51,0.329
439.53,0.302
438.55,0.291
437.57,0.288
436.59,0.286
435.61,0.281
434.63,0.270
433.65,0.262
432.67,0.260
431.69,0.269
430.71,0.288
429.73,0.315
428.75,0.343
427.77,0.356
426.79,0.350
425.81,0.329
424.83,0.319
423.84999999999997,0.330
422.87,0.361
421.89,0.406
420.90999999999997,0.428
419.93,0.414
418.95,0.386
417.96999999999997,0.368
416.99,0.361
416.01,0.375
415.03,0.368
414.05,0.358
413.07,0.339
412.09,0.320
411.11,0.298
410.13,0.271
409.15,0.241
408.17,0.205
407.19,0.169
406.21,0.144
405.23,0.133
404.25,0.129
403.27,0.140
402.29,0.166
401.31,0.178
400.33,0.177
399.34999999999997,0.162
398.37,0.143
397.39,0.126
396.40999999999997,0.115
395.43,0.104
394.45,0.087
393.46999999999997,0.074
392.49,0.056
391.51,0.045
390.53,0.038
389.55,0.033
388.57,0.028
387.59,0.028
386.61,0.025
385.63,0.025
384.65,0.024
383.67,0.024
382.69,0.021
381.71,0.022
380.73,0.022
