wavelength,amplitude
999.4,1.000
998.45,1.000
997.5,1.000
996.55,1.000
995.6,1.000
994.65,1.000
993.7,1.000
992.75,1.000
991.8,1.000
990.85,1.000
989.9,1.000
988.95,1.000
988.0,1.000
987.05,1.000
986.1,1.000
985.15,1.000
984.2,1.000
983.25,1.000
982.3,1.000
981.35,1.000
980.4,1.000
979.45,1.000
978.5,1.000
977.55,1.000
976.6,1.000
975.65,1.000
974.7,1.000
973.75,1.000
972.8,1.000
971.85,1.000
970.9,1.000
969.95,1.000
969.0,1.000
968.05,1.000
967.1,1.000
966.15,1.000
965.2,1.000
964.25,1.000
963.3,1.000
962.35,1.000
961.4,1.000
960.45,1.000
959.5,1.000
958.55,1.000
957.6,1.000
956.65,1.000
955.7,1.000
954.75,1.000
953.8,1.000
952.85,1.000
951.9,1.000
950.95,1.000
950.0,1.000
949.05,1.000
948.1,1.000
947.15,1.000
946.2,1.000
945.25,1.000
944.3,1.000
943.35,1.000
942.4,1.000
941.45,1.000
940.5,1.000
939.55,1.000
938.6,1.000
937.65,1.000
936.7,1.000
935.75,1.000
934.8,1.000
933.85,1.000
932.9,1.000
931.95,1.000
931.0,1.000
930.05,1.000
929.1,1.000
928.15,1.000
927.2,1.000
926.25,1.000
925.3,1.000
924.35,1.000
923.4,1.000
922.45,1.000
921.5,1.000
920.55,1.000
919.6,1.000
918.65,1.000
917.7,1.000
916.75,1.000
915.8,1.000
914.85,1.000
913.9,1.000
912.95,1.000
912.0,1.000
911.05,1.000
910.1,1.000
909.15,1.000
908.2,1.000
907.25,1.000
906.3,1.000
905.35,1.000
904.4,1.000
903.45,1.000
902.5,1.000
901.55,1.000
900.6,1.000
899.65,1.000
898.7,1.000
897.75,1.000
896.8,1.000
895.85,1.000
894.9,1.000
893.95,1.000
893.0,1.000
892.05,1.000
891.1,1.000
890.15,1.000
889.2,1.000
888.25,1.000
887.3,1.000
886.35,1.000
885.4,1.000
884.45,1.000
883.5,1.000
882.55,1.000
881.6,1.000
880.65,1.000
879.7,1.000
878.75,1.000
877.8,1.000
876.85,1.000
875.9,1.000
874.95,1.000
874.0,1.000
873.05,1.000
872.1,1.000
871.15,1.000
870.2,1.000
869.25,1.000
868.3,1.000
867.35,1.000
866.4,1.000
865.45,1.000
864.5,1.000
863.55,1.000
862.6,1.000
861.65,1.000
860.7,1.000
859.75,1.000
858.8,1.000
857.85,1.000
856.9,1.000
855.95,1.000
855.0,1.000
854.05,1.000
853.1,1.000
852.15,1.000
851.2,1.000
850.25,1.000
849.3,1.000
848.35,1.000
847.4,1.000
846.45,1.000
845.5,1.000
844.55,1.000
843.6,1.000
842.65,1.000
841.7,1.000
840.75,1.000
839.8,1.000
838.85,1.000
837.9,1.000
836.95,1.000
836.0,1.000
835.05,1.000
834.1,1.000
833.15,1.000
832.2,1.000
831.25,1.000
830.3,1.000
829.35,1.000
828.4,1.000
827.45,1.000
826.5,1.000
825.55,1.000
824.6,1.000
823.65,1.000
822.7,1.000
821.75,1.000
820.8,1.000
819.85,1.000
818.9,1.000
817.95,1.000
817.0,1.000
816.05,1.000
815.1,1.000
814.15,1.000
813.2,1.000
812.25,1.000
811.3,1.000
810.35,1.000
809.4,0.998
808.45,0.994
807.5,0.990
806.55,0.986
805.6,0.982
804.65,0.978
803.7,0.974
802.75,0.971
801.8,0.967
800.85,0.963
799.9,0.960
798.95,0.956
798.0,0.952
797.05,0.949
796.1,0.945
795.15,0.942
794.2,0.938
793.25,0.935
792.3,0.931
791.35,0.928
790.4,0.924
789.45,0.921
788.5,0.918
787.55,0.914
786.6,0.911
785.65,0.908
784.7,0.905
783.75,0.901
782.8,0.898
781.85,0.895
780.9,0.892
779.95,0.889
779.0,0.886
778.05,0.883
777.1,0.879
776.15,0.876
775.2,0.873
774.25,0.870
773.3,0.867
772.35,0.864
771.4,0.861
770.45,0.859
769.5,0.856
768.55,0.853
767.6,0.850
766.65,0.847
765.7,0.844
764.75,0.841
763.8,0.839
762.85,0.836
761.9,0.833
760.95,0.830
760.0,0.828
759.05,0.825
758.1,0.822
757.15,0.820
756.2,0.817
755.25,0.814
754.3,0.812
753.35,0.809
752.4,0.806
751.45,0.804
750.5,0.801
749.55,0.799
748.6,0.796
747.65,0.794
746.7,0.791
745.75,0.789
744.8,0.786
743.85,0.784
742.9,0.782
741.95,0.779
741.0,0.777
740.05,0.774
739.1,0.772
738.15,0.770
737.2,0.767
736.25,0.765
735.3,0.763
734.35,0.760
733.4,0.758
732.45,0.756
731.5,0.754
730.55,0.751
729.6,0.749
728.65,0.747
727.7,0.745
726.75,0.742
725.8,0.740
724.85,0.738
723.9,0.736
722.95,0.734
722.0,0.732
721.05,0.730
720.1,0.727
719.15,0.725
718.2,0.723
717.25,0.721
716.3,0.719
715.35,0.717
714.4,0.715
713.45,0.713
712.5,0.711
711.55,0.709
710.6,0.707
709.65,0.705
708.7,0.703
707.75,0.701
706.8,0.699
705.85,0.697
704.9,0.695
703.95,0.694
703.0,0.692
702.05,0.690
701.1,0.688
700.15,0.686
699.2,0.684
698.25,0.682
697.3,0.680
696.35,0.679
695.4,0.677
694.45,0.675
693.5,0.673
692.55,0.671
691.6,0.670
690.65,0.668
689.7,0.666
688.75,0.664
687.8,0.663
686.85,0.661
685.9,0.659
684.95,0.660
684.0,0.656
683.05,0.654
682.1,0.652
681.15,0.651
680.2,0.649
679.25,0.647
678.3,0.646
677.35,0.644
676.4,0.642
675.45,0.641
674.5,0.639
673.55,0.638
672.6,0.636
671.65,0.634
670.7,0.633
669.75,0.631
668.8,0.630
667.85,0.628
666.9,0.626
665.95,0.625
665.0,0.623
664.05,0.622
663.1,0.620
662.15,0.619
661.2,0.617
660.25,0.616
659.3,0.614
658.35,0.613
657.4,0.611
656.45,0.610
655.5,0.608
654.55,0.607
653.6,0.605
652.65,0.604
651.7,0.603
650.75,0.601
649.8,0.600
648.85,0.598
647.9,0.597
646.95,0.595
646.0,0.594
645.05,0.593
644.1,0.591
643.15,0.590
642.2,0.589
641.25,0.587
640.3,0.586
639.35,0.584
638.4,0.583
637.45,0.582
636.5,0.580
635.55,0.579
634.6,0.578
633.65,0.576
632.7,0.575
631.75,0.574
630.8,0.573
629.85,0.571
628.9,0.570
627.95,0.569
627.0,0.567
626.05,0.566
625.1,0.565
624.15,0.564
623.2,0.562
622.25,0.561
621.3,0.560
620.35,0.559
619.4,0.557
618.45,0.556
617.5,0.555
616.55,0.554
615.6,0.552
614.65,0.551
613.7,0.550
612.75,0.549
611.8,0.548
610.85,0.547
609.9,0.545
608.95,0.544
608.0,0.543
607.05,0.542
606.1,0.541
605.15,0.540
604.2,0.538
603.25,0.537
602.3,0.536
601.35,0.535
600.4,0.534
599.45,0.533
598.5,0.532
597.55,0.530
596.6,0.529
595.65,0.528
594.7,0.527
593.75,0.526
592.8,0.525
591.85,0.524
590.9,0.523
589.95,0.522
589.0,0.521
588.05,0.520
587.1,0.518
586.15,0.517
585.2,0.516
584.25,0.519
583.3,0.522
582.35,0.525
581.4,0.528
580.45,0.532
579.5,0.535
578.55,0.539
577.6,0.542
576.65,0.546
575.7,0.550
574.75,0.554
573.8,0.558
572.85,0.561
571.9,0.565
570.95,0.569
570.0,0.563
569.05,0.556
568.1,0.550
567.15,0.544
566.2,0.539
565.25,0.533
564.3,0.527
563.35,0.522
562.4,0.516
561.45,0.511
560.5,0.505
559.55,0.500
558.6,0.495
557.65,0.490
556.7,0.487
555.75,0.486
554.8,0.485
553.85,0.484
552.9,0.483
551.95,0.482
551.0,0.481
550.05,0.480
549.1,0.479
548.15,0.478
547.2,0.477
546.25,0.476
545.3,0.476
544.35,0.475
543.4,0.474
542.45,0.473
541.5,0.472
540.55,0.471
539.6,0.470
538.65,0.469
537.7,0.468
536.75,0.468
535.8,0.467
534.85,0.466
533.9,0.465
532.95,0.464
532.0,0.463
531.05,0.462
530.1,0.462
529.15,0.461
528.2,0.460
527.25,0.459
526.3,0.458
525.35,0.457
524.4,0.457
523.45,0.456
522.5,0.455
521.55,0.454
520.6,0.453
519.65,0.453
518.7,0.452
517.75,0.451
516.8,0.450
515.85,0.449
514.9,0.449
513.95,0.448
513.0,0.447
512.05,0.446
511.1,0.445
510.15,0.445
509.2,0.444
508.25,0.443
507.3,0.442
506.35,0.441
505.4,0.441
504.45,0.440
503.5,0.439
502.55,0.438
501.6,0.438
500.65,0.437
499.7,0.436
498.75,0.435
497.8,0.435
496.85,0.434
495.9,0.433
494.95,0.437
494.0,0.436
493.05,0.437
492.1,0.437
491.15,0.436
490.2,0.435
489.25,0.434
488.3,0.434
487.35,0.441
486.4,0.440
485.45,0.439
484.5,0.438
483.55,0.436
482.6,0.435
481.65,0.435
480.7,0.431
479.75,0.438
478.8,0.439
477.85,0.438
476.9,0.448
475.95,0.446
475.0,0.445
474.05,0.449
473.1,0.437
472.15,0.429
471.2,0.428
470.25,0.428
469.3,0.427
468.35,0.423
467.4,0.423
466.45,0.420
465.5,0.420
464.55,0.419
463.6,0.418
462.65,0.418
461.7,0.417
460.75,0.413
459.8,0.413
458.85,0.412
457.9,0.411
456.95,0.411
456.0,0.410
455.05,0.403
454.1,0.403
453.15,0.402
452.2,0.401
451.25,0.401
450.3,0.400
449.35,0.400
448.4,0.399
447.45,0.398
446.5,0.398
445.55,0.397
444.6,0.396
443.65,0.396
442.7,0.395
441.75,0.395
440.8,0.394
439.85,0.393
438.9,0.393
437.95,0.392
437.0,0.392
436.05,0.391
435.1,0.390
434.15,0.390
433.2,0.389
432.25,0.389
431.3,0.388
430.35,0.387
429.4,0.387
428.45,0.386
427.5,0.386
426.55,0.385
425.6,0.384
424.65,0.384
423.7,0.383
422.75,0.383
421.8,0.382
420.85,0.381
419.9,0.381
418.95,0.380
418.0,0.380
417.05,0.379
416.1,0.379
415.15,0.378
414.2,0.377
413.25,0.377
412.3,0.376
411.35,0.376
410.4,0.375
409.45,0.375
408.5,0.374
407.55,0.374
406.6,0.373
405.65,0.372
404.7,0.372
403.75,0.371
402.8,0.371
401.85,0.370
400.9,0.370
399.95,0.369
399.0,0.369
398.05,0.368
397.1,0.368
396.15,0.367
395.2,0.367
394.25,0.366
393.3,0.365
392.35,0.365
391.4,0.364
390.45,0.364
389.5,0.363
388.55,0.363
387.6,0.362
386.65,0.362
385.7,0.361
384.75,0.361
383.8,0.360
382.85,0.360
381.9,0.359
380.95,0.359
380.0,0.358
