wavelength,amplitude
999.4,0.015
998.45,0.015
997.5,0.015
996.55,0.015
995.6,0.015
994.65,0.015
993.7,0.015
992.75,0.015
991.8,0.015
990.85,0.015
989.9,0.015
988.95,0.015
988.0,0.015
987.05,0.015
986.1,0.015
985.15,0.015
984.2,0.015
983.25,0.015
982.3,0.015
981.35,0.015
980.4,0.015
979.45,0.015
978.5,0.015
977.55,0.015
976.6,0.015
975.65,0.015
974.7,0.015
973.75,0.015
972.8,0.015
971.85,0.015
970.9,0.015
969.95,0.015
969.0,0.015
968.05,0.015
967.1,0.015
966.15,0.015
965.2,0.015
964.25,0.015
963.3,0.015
962.35,0.015
961.4,0.015
960.45,0.015
959.5,0.015
958.55,0.015
957.6,0.015
956.65,0.015
955.7,0.015
954.75,0.015
953.8,0.015
952.85,0.015
951.9,0.015
950.95,0.015
950.0,0.015
949.05,0.015
948.1,0.015
947.15,0.015
946.2,0.015
945.25,0.015
944.3,0.015
943.35,0.015
942.4,0.015
941.45,0.015
940.5,0.015
939.55,0.015
938.6,0.015
937.65,0.015
936.7,0.015
935.75,0.015
934.8,0.015
933.85,0.015
932.9,0.015
931.95,0.015
931.0,0.015
930.05,0.015
929.1,0.015
928.15,0.015
927.2,0.015
926.25,0.015
925.3,0.015
924.35,0.015
923.4,0.015
922.45,0.015
921.5,0.015
920.55,0.015
919.6,0.015
918.65,0.015
917.7,0.015
916.75,0.015
915.8,0.015
914.85,0.015
913.9,0.015
912.95,0.015
912.0,0.015
911.05,0.015
910.1,0.015
909.15,0.015
908.2,0.015
907.25,0.015
906.3,0.015
905.35,0.015
904.4,0.015
903.45,0.015
902.5,0.015
901.55,0.015
900.6,0.015
899.65,0.015
898.7,0.015
897.75,0.015
896.8,0.015
895.85,0.015
894.9,0.015
893.95,0.015
893.0,0.015
892.05,0.015
891.1,0.015
890.15,0.015
889.2,0.015
888.25,0.015
887.3,0.015
886.35,0.015
885.4,0.015
884.45,0.015
883.5,0.015
882.55,0.015
881.6,0.015
880.65,0.015
879.7,0.015
878.75,0.015
877.8,0.015
876.85,0.015
875.9,0.015
874.95,0.015
874.0,0.015
873.05,0.015
872.1,0.015
871.15,0.015
870.2,0.015
869.25,0.015
868.3,0.015
867.35,0.015
866.4,0.015
865.45,0.015
864.5,0.015
863.55,0.015
862.6,0.015
861.65,0.015
860.7,0.015
859.75,0.015
858.8,0.015
857.85,0.015
856.9,0.015
855.95,0.015
855.0,0.015
854.05,0.015
853.1,0.015
852.15,0.015
851.2,0.015
850.25,0.015
849.3,0.015
848.35,0.015
847.4,0.015
846.45,0.015
845.5,0.015
844.55,0.015
843.6,0.015
842.65,0.015
841.7,0.015
840.75,0.015
839.8,0.015
838.85,0.015
837.9,0.015
836.95,0.015
836.0,0.015
835.05,0.015
834.1,0.015
833.15,0.015
832.2,0.015
831.25,0.015
830.3,0.015
829.35,0.015
828.4,0.015
827.45,0.015
826.5,0.014
825.55,0.014
824.6,0.014
823.65,0.014
822.7,0.015
821.75,0.015
820.8,0.015
819.85,0.015
818.9,0.015
817.95,0.015
817.0,0.015
816.05,0.015
815.1,0.015
814.15,0.015
813.2,0.015
812.25,0.015
811.3,0.014
810.35,0.014
809.4,0.014
808.45,0.014
807.5,0.013
806.55,0.013
805.6,0.013
804.65,0.013
803.7,0.013
802.75,0.013
801.8,0.013
800.85,0.013
799.9,0.014
798.95,0.014
798.0,0.014
797.05,0.014
796.1,0.012
795.15,0.012
794.2,0.012
793.25,0.012
792.3,0.010
791.35,0.010
790.4,0.010
789.45,0.010
788.5,0.008
787.55,0.008
786.6,0.008
785.65,0.008
784.7,0.007
783.75,0.007
782.8,0.007
781.85,0.007
780.9,0.007
779.95,0.007
779.0,0.010
778.05,0.013
777.1,0.022
776.15,0.035
775.2,0.049
774.25,0.061
773.3,0.082
772.35,0.095
771.4,0.108
770.45,0.115
769.5,0.115
768.55,0.109
767.6,0.097
766.65,0.085
765.7,0.061
764.75,0.047
763.8,0.031
762.85,0.024
761.9,0.018
760.95,0.014
760.0,0.011
759.05,0.010
758.1,0.011
757.15,0.011
756.2,0.013
755.25,0.013
754.3,0.017
753.35,0.017
752.4,0.018
751.45,0.018
750.5,0.023
749.55,0.023
748.6,0.025
747.65,0.025
746.7,0.022
745.75,0.022
744.8,0.017
743.85,0.017
742.9,0.014
741.95,0.014
741.0,0.014
740.05,0.014
739.1,0.014
738.15,0.014
737.2,0.014
736.25,0.014
735.3,0.014
734.35,0.014
733.4,0.015
732.45,0.015
731.5,0.017
730.55,0.017
729.6,0.019
728.65,0.019
727.7,0.021
726.75,0.026
725.8,0.026
724.85,0.032
723.9,0.035
722.95,0.040
722.0,0.041
721.05,0.043
720.1,0.043
719.15,0.041
718.2,0.041
717.25,0.042
716.3,0.044
715.35,0.049
714.4,0.055
713.45,0.062
712.5,0.066
711.55,0.074
710.6,0.072
709.65,0.071
708.7,0.066
707.75,0.061
706.8,0.058
705.85,0.055
704.9,0.054
703.95,0.054
703.0,0.053
702.05,0.058
701.1,0.058
700.15,0.065
699.2,0.068
698.25,0.075
697.3,0.084
696.35,0.096
695.4,0.113
694.45,0.138
693.5,0.169
692.55,0.206
691.6,0.239
690.65,0.265
689.7,0.278
688.75,0.280
687.8,0.281
686.85,0.278
685.9,0.279
684.95,0.287
684.0,0.293
683.05,0.302
682.1,0.315
681.15,0.329
680.2,0.353
679.25,0.383
678.3,0.429
677.35,0.496
676.4,0.584
675.45,0.694
674.5,0.804
673.55,0.906
672.6,0.984
671.65,1.000
670.7,0.985
669.75,0.878
668.8,0.758
667.85,0.612
666.9,0.482
665.95,0.410
665.0,0.346
664.05,0.320
663.1,0.302
662.15,0.304
661.2,0.306
660.25,0.316
659.3,0.328
658.35,0.332
657.4,0.334
656.45,0.350
655.5,0.363
654.55,0.389
653.6,0.412
652.65,0.415
651.7,0.421
650.75,0.423
649.8,0.426
648.85,0.449
647.9,0.474
646.95,0.473
646.0,0.473
645.05,0.450
644.1,0.424
643.15,0.413
642.2,0.399
641.25,0.395
640.3,0.391
639.35,0.371
638.4,0.347
637.45,0.295
636.5,0.231
635.55,0.170
634.6,0.109
633.65,0.077
632.7,0.055
631.75,0.047
630.8,0.041
629.85,0.039
628.9,0.034
627.95,0.034
627.0,0.040
626.05,0.043
625.1,0.049
624.15,0.055
623.2,0.064
622.25,0.075
621.3,0.087
620.35,0.107
619.4,0.132
618.45,0.164
617.5,0.205
616.55,0.252
615.6,0.307
614.65,0.362
613.7,0.427
612.75,0.494
611.8,0.569
610.85,0.646
609.9,0.726
608.95,0.787
608.0,0.828
607.05,0.847
606.1,0.841
605.15,0.827
604.2,0.800
603.25,0.767
602.3,0.721
601.35,0.658
600.4,0.568
599.45,0.482
598.5,0.396
597.55,0.322
596.6,0.260
595.65,0.206
594.7,0.163
593.75,0.127
592.8,0.097
591.85,0.073
590.9,0.053
589.95,0.042
589.0,0.031
588.05,0.028
587.1,0.021
586.15,0.020
585.2,0.014
584.25,0.013
583.3,0.012
582.35,0.012
581.4,0.011
580.45,0.011
579.5,0.011
578.55,0.011
577.6,0.012
576.65,0.012
575.7,0.013
574.75,0.013
573.8,0.014
572.85,0.015
571.9,0.016
570.95,0.018
570.0,0.019
569.05,0.023
568.1,0.028
567.15,0.035
566.2,0.041
565.25,0.049
564.3,0.057
563.35,0.067
562.4,0.079
561.45,0.089
560.5,0.100
559.55,0.112
558.6,0.126
557.65,0.139
556.7,0.153
555.75,0.168
554.8,0.185
553.85,0.200
552.9,0.214
551.95,0.227
551.0,0.235
550.05,0.236
549.1,0.220
548.15,0.196
547.2,0.159
546.25,0.118
545.3,0.085
544.35,0.057
543.4,0.038
542.45,0.023
541.5,0.012
540.55,0.007
539.6,0.005
538.65,0.004
537.7,0.004
536.75,0.004
535.8,0.004
534.85,0.003
533.9,0.003
532.95,0.003
532.0,0.003
531.05,0.003
530.1,0.004
529.15,0.004
528.2,0.003
527.25,0.003
526.3,0.003
525.35,0.003
524.4,0.003
523.45,0.003
522.5,0.003
521.55,0.003
520.6,0.003
519.65,0.003
518.7,0.003
517.75,0.003
516.8,0.003
515.85,0.003
514.9,0.003
513.95,0.003
513.0,0.003
512.05,0.004
511.1,0.003
510.15,0.003
509.2,0.003
508.25,0.003
507.3,0.003
506.35,0.004
505.4,0.006
504.45,0.010
503.5,0.014
502.55,0.035
501.6,0.059
500.65,0.083
499.7,0.104
498.75,0.097
497.8,0.082
496.85,0.060
495.9,0.033
494.95,0.017
494.0,0.010
493.05,0.005
492.1,0.004
491.15,0.003
490.2,0.003
489.25,0.003
488.3,0.003
487.35,0.003
486.4,0.003
485.45,0.003
484.5,0.003
483.55,0.003
482.6,0.003
481.65,0.003
480.7,0.003
479.75,0.003
478.8,0.003
477.85,0.003
476.9,0.003
475.95,0.003
475.0,0.003
474.05,0.003
473.1,0.003
472.15,0.003
471.2,0.003
470.25,0.003
469.3,0.003
468.35,0.003
467.4,0.003
466.45,0.003
465.5,0.003
464.55,0.003
463.6,0.003
462.65,0.003
461.7,0.003
460.75,0.003
459.8,0.003
458.85,0.003
457.9,0.003
456.95,0.003
456.0,0.003
455.05,0.003
454.1,0.003
453.15,0.003
452.2,0.003
451.25,0.003
450.3,0.003
449.35,0.003
448.4,0.003
447.45,0.003
446.5,0.003
445.55,0.003
444.6,0.003
443.65,0.003
442.7,0.003
441.75,0.003
440.8,0.003
439.85,0.003
438.9,0.003
437.95,0.003
437.0,0.003
436.05,0.003
435.1,0.003
434.15,0.003
433.2,0.003
432.25,0.003
431.3,0.003
430.35,0.003
429.4,0.003
428.45,0.003
427.5,0.003
426.55,0.003
425.6,0.003
424.65,0.003
423.7,0.003
422.75,0.003
421.8,0.003
420.85,0.003
419.9,0.003
418.95,0.003
418.0,0.003
417.05,0.003
416.1,0.003
415.15,0.003
414.2,0.003
413.25,0.003
412.3,0.003
411.35,0.003
410.4,0.003
409.45,0.003
408.5,0.003
407.55,0.003
406.6,0.003
405.65,0.003
404.7,0.003
403.75,0.003
402.8,0.003
401.85,0.003
400.9,0.003
399.95,0.003
399.0,0.003
398.05,0.003
397.1,0.003
396.15,0.003
395.2,0.003
394.25,0.003
393.3,0.003
392.35,0.003
391.4,0.003
390.45,0.003
389.5,0.003
388.55,0.003
387.6,0.003
386.65,0.003
385.7,0.003
384.75,0.003
383.8,0.003
382.85,0.003
381.9,0.003
380.95,0.003
380.0,0.003
