wavelength,amplitude
999.4,0.098
998.45,0.098
997.5,0.098
996.55,0.098
995.6,0.098
994.65,0.098
993.7,0.098
992.75,0.098
991.8,0.098
990.85,0.098
989.9,0.098
988.95,0.098
988.0,0.098
987.05,0.098
986.1,0.098
985.15,0.098
984.2,0.098
983.25,0.098
982.3,0.098
981.35,0.098
980.4,0.098
979.45,0.098
978.5,0.098
977.55,0.098
976.6,0.098
975.65,0.098
974.7,0.098
973.75,0.098
972.8,0.098
971.85,0.098
970.9,0.098
969.95,0.098
969.0,0.098
968.05,0.098
967.1,0.098
966.15,0.098
965.2,0.098
964.25,0.098
963.3,0.098
962.35,0.098
961.4,0.098
960.45,0.098
959.5,0.098
958.55,0.098
957.6,0.098
956.65,0.098
955.7,0.098
954.75,0.098
953.8,0.098
952.85,0.098
951.9,0.098
950.95,0.098
950.0,0.098
949.05,0.098
948.1,0.098
947.15,0.098
946.2,0.098
945.25,0.098
944.3,0.098
943.35,0.098
942.4,0.098
941.45,0.098
940.5,0.098
939.55,0.098
938.6,0.098
937.65,0.098
936.7,0.098
935.75,0.098
934.8,0.098
933.85,0.098
932.9,0.098
931.95,0.080
931.0,0.080
930.05,0.080
929.1,0.080
928.15,0.080
927.2,0.080
926.25,0.080
925.3,0.080
924.35,0.082
923.4,0.082
922.45,0.081
921.5,0.081
920.55,0.077
919.6,0.087
918.65,0.112
917.7,0.168
916.75,0.222
915.8,0.255
914.85,0.268
913.9,0.241
912.95,0.177
912.0,0.132
911.05,0.098
910.1,0.082
909.15,0.078
908.2,0.081
907.25,0.077
906.3,0.077
905.35,0.079
904.4,0.079
903.45,0.079
902.5,0.079
901.55,0.077
900.6,0.077
899.65,0.077
898.7,0.077
897.75,0.079
896.8,0.079
895.85,0.081
894.9,0.080
893.95,0.077
893.0,0.078
892.05,0.077
891.1,0.077
890.15,0.077
889.2,0.077
888.25,0.077
887.3,0.077
886.35,0.078
885.4,0.077
884.45,0.098
883.5,0.104
882.55,0.202
881.6,0.311
880.65,0.465
879.7,0.631
878.75,0.656
877.8,0.694
876.85,0.562
875.9,0.412
874.95,0.283
874.0,0.152
873.05,0.132
872.1,0.101
871.15,0.107
870.2,0.131
869.25,0.149
868.3,0.185
867.35,0.198
866.4,0.192
865.45,0.166
864.5,0.134
863.55,0.123
862.6,0.106
861.65,0.106
860.7,0.123
859.75,0.123
858.8,0.123
857.85,0.122
856.9,0.101
855.95,0.092
855.0,0.077
854.05,0.077
853.1,0.077
852.15,0.083
851.2,0.083
850.25,0.083
849.3,0.083
848.35,0.077
847.4,0.077
846.45,0.077
845.5,0.077
844.55,0.078
843.6,0.078
842.65,0.083
841.7,0.083
840.75,0.084
839.8,0.083
838.85,0.079
837.9,0.079
836.95,0.083
836.0,0.101
835.05,0.121
834.1,0.140
833.15,0.136
832.2,0.116
831.25,0.107
830.3,0.091
829.35,0.089
828.4,0.107
827.45,0.132
826.5,0.195
825.55,0.249
824.6,0.270
823.65,0.298
822.7,0.248
821.75,0.193
820.8,0.142
819.85,0.109
818.9,0.097
817.95,0.084
817.0,0.084
816.05,0.078
815.1,0.079
814.15,0.084
813.2,0.101
812.25,0.116
811.3,0.134
810.35,0.145
809.4,0.128
808.45,0.126
807.5,0.108
806.55,0.098
805.6,0.097
804.65,0.076
803.7,0.075
802.75,0.075
801.8,0.075
800.85,0.077
799.9,0.076
798.95,0.092
798.0,0.093
797.05,0.099
796.1,0.100
795.15,0.097
794.2,0.096
793.25,0.077
792.3,0.075
791.35,0.075
790.4,0.075
789.45,0.071
788.5,0.071
787.55,0.071
786.6,0.070
785.65,0.071
784.7,0.070
783.75,0.070
782.8,0.069
781.85,0.074
780.9,0.074
779.95,0.074
779.0,0.073
778.05,0.071
777.1,0.070
776.15,0.070
775.2,0.070
774.25,0.067
773.3,0.067
772.35,0.079
771.4,0.079
770.45,0.093
769.5,0.105
768.55,0.119
767.6,0.119
766.65,0.130
765.7,0.146
764.75,0.159
763.8,0.170
762.85,0.168
761.9,0.156
760.95,0.138
760.0,0.114
759.05,0.096
758.1,0.082
757.15,0.075
756.2,0.071
755.25,0.076
754.3,0.076
753.35,0.078
752.4,0.078
751.45,0.085
750.5,0.085
749.55,0.076
748.6,0.076
747.65,0.072
746.7,0.072
745.75,0.071
744.8,0.071
743.85,0.074
742.9,0.073
741.95,0.072
741.0,0.071
740.05,0.063
739.1,0.063
738.15,0.063
737.2,0.063
736.25,0.063
735.3,0.062
734.35,0.062
733.4,0.062
732.45,0.061
731.5,0.061
730.55,0.061
729.6,0.061
728.65,0.061
727.7,0.061
726.75,0.061
725.8,0.061
724.85,0.060
723.9,0.060
722.95,0.060
722.0,0.065
721.05,0.071
720.1,0.071
719.15,0.072
718.2,0.074
717.25,0.074
716.3,0.076
715.35,0.077
714.4,0.076
713.45,0.075
712.5,0.073
711.55,0.070
710.6,0.074
709.65,0.078
708.7,0.082
707.75,0.083
706.8,0.089
705.85,0.087
704.9,0.093
703.95,0.093
703.0,0.087
702.05,0.090
701.1,0.088
700.15,0.087
699.2,0.081
698.25,0.077
697.3,0.077
696.35,0.078
695.4,0.080
694.45,0.082
693.5,0.091
692.55,0.091
691.6,0.099
690.65,0.098
689.7,0.110
688.75,0.128
687.8,0.159
686.85,0.180
685.9,0.215
684.95,0.231
684.0,0.251
683.05,0.261
682.1,0.267
681.15,0.268
680.2,0.270
679.25,0.270
678.3,0.279
677.35,0.281
676.4,0.298
675.45,0.302
674.5,0.324
673.55,0.342
672.6,0.375
671.65,0.417
670.7,0.487
669.75,0.573
668.8,0.693
667.85,0.812
666.9,0.907
665.95,0.981
665.0,0.999
664.05,1.000
663.1,0.895
662.15,0.793
661.2,0.654
660.25,0.520
659.3,0.442
658.35,0.373
657.4,0.333
656.45,0.305
655.5,0.287
654.55,0.277
653.6,0.266
652.65,0.264
651.7,0.261
650.75,0.251
649.8,0.257
648.85,0.259
647.9,0.268
646.95,0.276
646.0,0.274
645.05,0.269
644.1,0.272
643.15,0.269
642.2,0.275
641.25,0.287
640.3,0.285
639.35,0.277
638.4,0.266
637.45,0.246
636.5,0.237
635.55,0.217
634.6,0.208
633.65,0.192
632.7,0.181
631.75,0.154
630.8,0.138
629.85,0.115
628.9,0.104
627.95,0.087
627.0,0.080
626.05,0.072
625.1,0.071
624.15,0.066
623.2,0.066
622.25,0.066
621.3,0.066
620.35,0.069
619.4,0.069
618.45,0.072
617.5,0.074
616.55,0.085
615.6,0.087
614.65,0.100
613.7,0.105
612.75,0.127
611.8,0.145
610.85,0.170
609.9,0.201
608.95,0.237
608.0,0.277
607.05,0.322
606.1,0.376
605.15,0.425
604.2,0.493
603.25,0.558
602.3,0.621
601.35,0.676
600.4,0.711
599.45,0.739
598.5,0.749
597.55,0.740
596.6,0.726
595.65,0.689
594.7,0.651
593.75,0.588
592.8,0.529
591.85,0.465
590.9,0.403
589.95,0.351
589.0,0.307
588.05,0.263
587.1,0.228
586.15,0.199
585.2,0.179
584.25,0.156
583.3,0.152
582.35,0.135
581.4,0.130
580.45,0.123
579.5,0.122
578.55,0.110
577.6,0.109
576.65,0.108
575.7,0.109
574.75,0.113
573.8,0.108
572.85,0.109
571.9,0.110
570.95,0.111
570.0,0.112
569.05,0.111
568.1,0.108
567.15,0.107
566.2,0.107
565.25,0.105
564.3,0.105
563.35,0.105
562.4,0.107
561.45,0.106
560.5,0.107
559.55,0.102
558.6,0.102
557.65,0.103
556.7,0.108
555.75,0.108
554.8,0.112
553.85,0.115
552.9,0.127
551.95,0.126
551.0,0.131
550.05,0.136
549.1,0.144
548.15,0.146
547.2,0.152
546.25,0.152
545.3,0.156
544.35,0.158
543.4,0.159
542.45,0.157
541.5,0.153
540.55,0.146
539.6,0.137
538.65,0.129
537.7,0.118
536.75,0.112
535.8,0.090
534.85,0.084
533.9,0.066
532.95,0.060
532.0,0.046
531.05,0.044
530.1,0.041
529.15,0.040
528.2,0.040
527.25,0.038
526.3,0.038
525.35,0.037
524.4,0.037
523.45,0.037
522.5,0.036
521.55,0.036
520.6,0.036
519.65,0.039
518.7,0.045
517.75,0.045
516.8,0.049
515.85,0.049
514.9,0.055
513.95,0.056
513.0,0.061
512.05,0.061
511.1,0.067
510.15,0.067
509.2,0.070
508.25,0.074
507.3,0.073
506.35,0.072
505.4,0.068
504.45,0.068
503.5,0.068
502.55,0.069
501.6,0.070
500.65,0.071
499.7,0.072
498.75,0.073
497.8,0.071
496.85,0.074
495.9,0.073
494.95,0.071
494.0,0.071
493.05,0.077
492.1,0.077
491.15,0.076
490.2,0.076
489.25,0.077
488.3,0.076
487.35,0.076
486.4,0.076
485.45,0.072
484.5,0.072
483.55,0.071
482.6,0.071
481.65,0.071
480.7,0.072
479.75,0.073
478.8,0.073
477.85,0.070
476.9,0.070
475.95,0.067
475.0,0.068
474.05,0.066
473.1,0.066
472.15,0.067
471.2,0.068
470.25,0.067
469.3,0.067
468.35,0.065
467.4,0.065
466.45,0.068
465.5,0.069
464.55,0.070
463.6,0.070
462.65,0.067
461.7,0.067
460.75,0.066
459.8,0.065
458.85,0.065
457.9,0.066
456.95,0.064
456.0,0.064
455.05,0.064
454.1,0.063
453.15,0.061
452.2,0.062
451.25,0.064
450.3,0.064
449.35,0.063
448.4,0.062
447.45,0.063
446.5,0.063
445.55,0.061
444.6,0.062
443.65,0.061
442.7,0.062
441.75,0.061
440.8,0.061
439.85,0.062
438.9,0.063
437.95,0.060
437.0,0.060
436.05,0.059
435.1,0.060
434.15,0.058
433.2,0.057
432.25,0.057
431.3,0.057
430.35,0.058
429.4,0.058
428.45,0.060
427.5,0.060
426.55,0.058
425.6,0.057
424.65,0.056
423.7,0.056
422.75,0.055
421.8,0.055
420.85,0.053
419.9,0.052
418.95,0.051
418.0,0.052
417.05,0.053
416.1,0.053
415.15,0.051
414.2,0.051
413.25,0.051
412.3,0.050
411.35,0.050
410.4,0.048
409.45,0.047
408.5,0.048
407.55,0.047
406.6,0.045
405.65,0.045
404.7,0.045
403.75,0.045
402.8,0.042
401.85,0.043
400.9,0.043
399.95,0.043
399.0,0.042
398.05,0.042
397.1,0.042
396.15,0.041
395.2,0.040
394.25,0.039
393.3,0.039
392.35,0.039
391.4,0.038
390.45,0.038
389.5,0.037
388.55,0.037
387.6,0.037
386.65,0.036
385.7,0.035
384.75,0.035
383.8,0.035
382.85,0.035
381.9,0.034
380.95,0.033
380.0,0.033
