wavelength,amplitude
958.9125,0.469
957.9290000000001,0.459
956.9455,0.446
955.962,0.429
954.9785,0.415
953.995,0.386
953.0115000000001,0.365
952.028,0.348
951.0445000000001,0.330
950.061,0.320
949.0775,0.318
948.094,0.314
947.1105,0.321
946.1270000000001,0.337
945.1435,0.361
944.1600000000001,0.401
943.1765,0.452
942.193,0.521
941.2095,0.604
940.226,0.682
939.2425000000001,0.763
938.259,0.821
937.2755000000001,0.871
936.292,0.919
935.3085000000001,0.958
934.325,0.984
933.3415,0.997
932.3580000000001,1.000
931.3745,0.991
930.3910000000001,0.971
929.4075,0.935
928.4240000000001,0.895
927.4405,0.861
926.457,0.829
925.4735000000001,0.824
924.49,0.840
923.5065000000001,0.860
922.523,0.881
921.5395000000001,0.913
920.556,0.936
919.5725,0.953
918.589,0.953
917.6055,0.947
916.6220000000001,0.931
915.6385,0.895
914.6550000000001,0.868
913.6715,0.843
912.688,0.808
911.7045,0.788
910.721,0.771
909.7375000000001,0.747
908.754,0.714
907.7705000000001,0.689
906.787,0.649
905.8035,0.610
904.82,0.568
903.8365,0.522
902.8530000000001,0.472
901.8695,0.430
900.8860000000001,0.392
899.9025,0.358
898.919,0.335
897.9355,0.314
896.952,0.296
895.9685000000001,0.285
894.985,0.274
894.0015000000001,0.260
893.018,0.251
892.0345000000001,0.240
891.051,0.225
890.0675,0.209
889.0840000000001,0.197
888.1005,0.195
887.1170000000001,0.187
886.1335,0.181
885.1500000000001,0.181
884.1665,0.185
883.183,0.199
882.1995000000001,0.223
881.216,0.254
880.2325000000001,0.290
879.249,0.343
878.2655000000001,0.389
877.282,0.427
876.2985,0.460
875.315,0.479
874.3315,0.492
873.3480000000001,0.486
872.3645,0.480
871.3810000000001,0.478
870.3975,0.483
869.414,0.507
868.4305,0.556
867.447,0.619
866.4635000000001,0.694
865.48,0.764
864.4965000000001,0.823
863.513,0.861
862.5295,0.881
861.546,0.883
860.5625,0.871
859.5790000000001,0.829
858.5955,0.777
857.6120000000001,0.721
856.6285,0.658
855.645,0.593
854.6615,0.525
853.678,0.479
852.6945000000001,0.454
851.711,0.450
850.7275000000001,0.463
849.744,0.488
848.7605,0.523
847.777,0.567
846.7935,0.627
845.8100000000001,0.651
844.8265,0.669
843.8430000000001,0.678
842.8595,0.676
841.8760000000001,0.649
840.8925,0.603
839.909,0.548
838.9255,0.494
837.942,0.443
836.9585000000001,0.390
835.975,0.358
834.9915000000001,0.335
834.008,0.322
833.0245,0.321
832.041,0.330
831.0575,0.343
830.0740000000001,0.360
829.0905,0.381
828.1070000000001,0.401
827.1235,0.407
826.14,0.409
825.1565,0.405
824.173,0.389
823.1895000000001,0.361
822.206,0.328
821.2225000000001,0.296
820.239,0.267
819.2555,0.239
818.272,0.220
817.2885,0.210
816.3050000000001,0.205
815.3215,0.205
814.3380000000001,0.206
813.3545,0.210
812.371,0.210
811.3875,0.207
810.404,0.199
809.4205000000001,0.190
808.437,0.175
807.4535000000001,0.162
806.47,0.149
805.4865,0.138
804.503,0.125
803.5195,0.118
802.5360000000001,0.110
801.5525,0.106
800.5690000000001,0.103
799.5855,0.102
798.6020000000001,0.097
797.6185,0.097
796.635,0.099
795.6515,0.103
794.668,0.100
793.6845000000001,0.100
792.701,0.100
791.7175000000001,0.101
790.734,0.100
789.7505,0.103
788.767,0.109
787.7835,0.120
786.8000000000001,0.137
785.8165,0.157
784.8330000000001,0.176
783.8495,0.195
782.866,0.208
781.8825,0.213
780.899,0.207
779.9155000000001,0.200
778.932,0.185
777.9485000000001,0.166
776.965,0.152
775.9815,0.143
774.998,0.146
774.0145,0.160
773.0310000000001,0.181
772.0475,0.214
771.0640000000001,0.239
770.0805,0.263
769.097,0.282
768.1135,0.290
767.13,0.281
766.1465000000001,0.265
765.163,0.242
764.1795000000001,0.217
763.196,0.191
762.2125,0.169
761.229,0.151
760.2455,0.136
759.2620000000001,0.127
758.2785,0.119
757.2950000000001,0.116
756.3115,0.110
755.328,0.103
754.3445,0.097
753.361,0.090
752.3775,0.085
751.394,0.077
750.4105000000001,0.072
749.427,0.069
748.4435000000001,0.064
747.46,0.061
746.4765,0.059
745.493,0.057
744.5095,0.055
743.5260000000001,0.055
742.5425,0.053
741.5590000000001,0.053
740.5755,0.052
739.592,0.052
738.6085,0.050
737.625,0.049
736.6415000000001,0.049
735.658,0.048
734.6745000000001,0.048
733.691,0.047
732.7075,0.048
731.724,0.049
730.7405,0.048
729.7570000000001,0.046
728.7735,0.047
727.7900000000001,0.048
726.8065,0.048
725.823,0.049
724.8395,0.046
723.856,0.045
722.8725000000001,0.046
721.889,0.045
720.9055000000001,0.043
719.922,0.044
718.9385,0.044
717.955,0.044
716.9715,0.044
715.988,0.044
715.0045,0.045
714.0210000000001,0.045
713.0375,0.044
712.054,0.044
711.0705,0.043
710.087,0.042
709.1035,0.043
708.12,0.043
707.1365000000001,0.042
706.153,0.040
705.1695000000001,0.040
704.186,0.040
703.2025,0.042
702.219,0.041
701.2355,0.042
700.2520000000001,0.044
699.2685,0.044
698.2850000000001,0.045
697.3015,0.045
696.318,0.047
695.3345,0.046
694.351,0.045
693.3675000000001,0.044
692.384,0.043
691.4005000000001,0.045
690.417,0.046
689.4335,0.046
688.45,0.045
687.4665,0.046
686.4830000000001,0.046
685.4995,0.046
684.5160000000001,0.047
683.5325,0.046
682.549,0.046
681.5655,0.046
680.582,0.046
679.5985000000001,0.048
678.615,0.047
677.6315000000001,0.047
676.648,0.047
675.6645,0.048
674.681,0.049
673.6975,0.048
672.714,0.049
671.7305,0.048
670.7470000000001,0.048
669.7635,0.048
668.78,0.052
667.7965,0.052
666.813,0.051
665.8295,0.050
664.846,0.051
663.8625000000001,0.051
662.879,0.052
661.8955000000001,0.052
660.912,0.053
659.9285,0.052
658.945,0.053
657.9615,0.054
656.9780000000001,0.054
655.9945,0.057
655.0110000000001,0.057
654.0275,0.057
653.044,0.057
652.0605,0.058
651.077,0.061
650.0935000000001,0.063
649.11,0.063
648.1265000000001,0.064
647.143,0.063
646.1595,0.063
645.176,0.062
644.1925,0.062
643.2090000000001,0.061
642.2255,0.060
641.2420000000001,0.059
640.2585,0.054
639.275,0.053
638.2915,0.052
637.308,0.052
636.3245000000001,0.051
635.341,0.049
634.3575000000001,0.050
633.374,0.049
632.3905,0.048
631.407,0.049
630.4235,0.048
629.44,0.046
628.4565,0.046
627.4730000000001,0.047
626.4895,0.045
625.506,0.044
624.5225,0.044
623.539,0.043
622.5555,0.043
621.572,0.042
620.5885000000001,0.042
619.605,0.042
618.6215,0.041
617.638,0.043
616.6545,0.041
615.671,0.040
614.6875,0.041
613.7040000000001,0.042
612.7205,0.040
611.7370000000001,0.041
610.7535,0.041
609.77,0.041
608.7865,0.043
607.803,0.040
606.8195000000001,0.042
605.836,0.041
604.8525000000001,0.041
603.869,0.040
602.8855,0.040
601.902,0.040
600.9185,0.041
599.9350000000001,0.040
598.9515,0.040
597.9680000000001,0.041
596.9845,0.041
596.001,0.041
595.0175,0.041
594.034,0.040
593.0505,0.040
592.067,0.041
591.0835000000001,0.041
590.1,0.039
589.1165,0.039
588.133,0.038
587.1495,0.039
586.166,0.039
585.1825,0.037
584.1990000000001,0.039
583.2155,0.039
582.232,0.038
581.2485,0.038
580.265,0.039
579.2815,0.040
578.298,0.040
577.3145000000001,0.039
576.331,0.039
575.3475,0.039
574.364,0.040
573.3805,0.040
572.397,0.040
571.4135,0.042
570.4300000000001,0.040
569.4465,0.042
568.4630000000001,0.042
567.4795,0.041
566.496,0.039
565.5125,0.039
564.529,0.038
563.5455000000001,0.038
562.562,0.038
561.5785000000001,0.038
560.595,0.038
559.6115,0.037
558.628,0.037
557.6445,0.036
556.6610000000001,0.035
555.6775,0.036
554.6940000000001,0.035
553.7105,0.035
552.727,0.034
551.7435,0.036
550.76,0.037
549.7765,0.036
548.793,0.036
547.8095000000001,0.036
546.826,0.034
545.8425,0.036
544.859,0.036
543.8755,0.036
542.892,0.036
541.9085,0.036
540.9250000000001,0.034
539.9415,0.034
538.958,0.034
537.9745,0.034
536.991,0.034
536.0075,0.033
535.024,0.033
534.0405000000001,0.033
533.057,0.034
532.0735,0.033
531.09,0.033
530.1065,0.033
529.123,0.034
528.1395,0.033
527.1560000000001,0.033
526.1725,0.033
525.1890000000001,0.033
524.2055,0.033
523.222,0.034
522.2385,0.034
521.255,0.034
520.2715000000001,0.034
519.288,0.033
518.3045000000001,0.033
517.321,0.033
516.3375,0.033
515.354,0.034
514.3705,0.033
513.3870000000001,0.033
512.4035,0.033
511.42,0.033
510.4365,0.033
509.45300000000003,0.033
508.46950000000004,0.032
507.48600000000005,0.032
506.5025,0.032
505.519,0.032
504.5355,0.031
503.552,0.032
502.56850000000003,0.031
501.58500000000004,0.031
500.60150000000004,0.032
499.618,0.031
498.6345,0.031
497.651,0.031
496.6675,0.031
495.684,0.031
494.70050000000003,0.031
493.71700000000004,0.031
492.7335,0.030
491.75,0.030
490.7665,0.031
489.783,0.032
488.7995,0.032
487.81600000000003,0.032
486.83250000000004,0.033
485.84900000000005,0.033
484.8655,0.032
483.882,0.032
482.8985,0.032
481.915,0.033
480.9315,0.034
479.94800000000004,0.034
478.96450000000004,0.034
477.981,0.033
476.9975,0.033
476.014,0.033
475.0305,0.033
474.047,0.033
473.06350000000003,0.033
472.08000000000004,0.034
471.0965,0.033
470.113,0.033
469.1295,0.033
468.146,0.033
467.1625,0.032
466.17900000000003,0.032
465.19550000000004,0.032
464.21200000000005,0.032
463.2285,0.033
462.245,0.033
461.2615,0.035
460.278,0.035
459.2945,0.034
458.31100000000004,0.035
457.32750000000004,0.035
456.344,0.035
455.3605,0.036
454.377,0.036
453.3935,0.036
452.41,0.036
451.42650000000003,0.036
450.44300000000004,0.036
449.4595,0.035
448.476,0.038
447.4925,0.039
446.509,0.040
445.5255,0.040
444.54200000000003,0.041
443.55850000000004,0.041
442.57500000000005,0.042
441.5915,0.041
440.608,0.040
439.6245,0.039
438.641,0.036
437.6575,0.034
436.67400000000004,0.033
435.69050000000004,0.031
434.707,0.030
433.7235,0.030
432.74,0.030
431.7565,0.030
430.773,0.030
429.78950000000003,0.029
428.80600000000004,0.028
427.8225,0.029
426.839,0.028
425.8555,0.027
424.872,0.026
423.8885,0.026
422.90500000000003,0.026
421.92150000000004,0.026
420.93800000000005,0.026
419.9545,0.026
418.971,0.025
417.9875,0.025
417.004,0.025
416.0205,0.025
415.03700000000003,0.024
414.05350000000004,0.025
413.07,0.026
412.0865,0.025
411.103,0.024
410.1195,0.025
409.136,0.024
408.15250000000003,0.024
407.16900000000004,0.023
406.1855,0.024
405.202,0.024
404.2185,0.024
403.235,0.023
402.2515,0.023
401.26800000000003,0.024
400.28450000000004,0.024
399.30100000000004,0.024
398.3175,0.024
397.334,0.025
396.3505,0.023
395.367,0.023
394.3835,0.023
393.40000000000003,0.023
392.41650000000004,0.023
391.433,0.022
390.4495,0.023
389.466,0.023
388.4825,0.023
387.499,0.023
386.51550000000003,0.023
385.53200000000004,0.024
384.5485,0.024
383.565,0.024
382.5815,0.023
381.598,0.023
380.6145,0.023
