wavelength,amplitude
959.91,0.292
958.93,0.275
957.9499999999999,0.271
956.97,0.275
955.99,0.275
955.01,0.276
954.03,0.281
953.05,0.284
952.0699999999999,0.285
951.09,0.282
950.11,0.286
949.13,0.295
948.15,0.297
947.17,0.290
946.1899999999999,0.290
945.21,0.287
944.23,0.291
943.25,0.294
942.27,0.300
941.29,0.293
940.31,0.289
939.3299999999999,0.289
938.35,0.301
937.37,0.303
936.39,0.306
935.41,0.305
934.43,0.295
933.4499999999999,0.293
932.47,0.297
931.49,0.291
930.51,0.292
929.53,0.292
928.55,0.299
927.5699999999999,0.304
926.59,0.293
925.61,0.300
924.63,0.296
923.65,0.297
922.67,0.306
921.6899999999999,0.303
920.71,0.296
919.73,0.294
918.75,0.293
917.77,0.296
916.79,0.295
915.81,0.293
914.8299999999999,0.285
913.85,0.293
912.87,0.292
911.89,0.287
910.91,0.287
909.93,0.288
908.9499999999999,0.291
907.97,0.290
906.99,0.289
906.01,0.287
905.03,0.285
904.05,0.294
903.0699999999999,0.290
902.09,0.287
901.11,0.292
900.13,0.285
899.15,0.290
898.17,0.283
897.1899999999999,0.281
896.21,0.276
895.23,0.274
894.25,0.276
893.27,0.271
892.29,0.270
891.31,0.274
890.3299999999999,0.289
889.35,0.305
888.37,0.318
887.39,0.325
886.41,0.340
885.43,0.347
884.4499999999999,0.356
883.47,0.354
882.49,0.345
881.51,0.341
880.53,0.346
879.55,0.345
878.5699999999999,0.336
877.59,0.322
876.61,0.316
875.63,0.300
874.65,0.293
873.67,0.286
872.6899999999999,0.283
871.71,0.272
870.73,0.267
869.75,0.259
868.77,0.259
867.79,0.261
866.81,0.260
865.83,0.251
864.85,0.240
863.87,0.245
862.89,0.254
861.91,0.250
860.93,0.257
859.9499999999999,0.258
858.97,0.257
857.99,0.262
857.01,0.252
856.03,0.248
855.05,0.249
854.0699999999999,0.251
853.09,0.253
852.11,0.246
851.13,0.244
850.15,0.250
849.17,0.254
848.1899999999999,0.251
847.21,0.244
846.23,0.242
845.25,0.246
844.27,0.255
843.29,0.259
842.31,0.261
841.33,0.255
840.35,0.253
839.37,0.251
838.39,0.247
837.41,0.250
836.43,0.255
835.4499999999999,0.256
834.47,0.258
833.49,0.262
832.51,0.268
831.53,0.267
830.55,0.258
829.5699999999999,0.266
828.59,0.263
827.61,0.269
826.63,0.272
825.65,0.269
824.67,0.267
823.6899999999999,0.269
822.71,0.270
821.73,0.271
820.75,0.272
819.77,0.282
818.79,0.280
817.81,0.278
816.83,0.282
815.85,0.272
814.87,0.283
813.89,0.278
812.91,0.280
811.93,0.286
810.9499999999999,0.287
809.97,0.286
808.99,0.280
808.01,0.275
807.03,0.272
806.05,0.279
805.0699999999999,0.284
804.09,0.288
803.11,0.287
802.13,0.285
801.15,0.298
800.17,0.293
799.1899999999999,0.289
798.21,0.284
797.23,0.271
796.25,0.275
795.27,0.283
794.29,0.285
793.31,0.289
792.33,0.282
791.35,0.285
790.37,0.286
789.39,0.284
788.41,0.286
787.43,0.292
786.4499999999999,0.294
785.47,0.289
784.49,0.287
783.51,0.286
782.53,0.286
781.55,0.288
780.5699999999999,0.286
779.59,0.290
778.61,0.293
777.63,0.290
776.65,0.289
775.67,0.290
774.6899999999999,0.292
773.71,0.294
772.73,0.298
771.75,0.289
770.77,0.285
769.79,0.286
768.81,0.291
767.83,0.289
766.85,0.285
765.87,0.284
764.89,0.282
763.91,0.290
762.93,0.282
761.9499999999999,0.281
760.97,0.280
759.99,0.279
759.01,0.280
758.03,0.279
757.05,0.277
756.0699999999999,0.281
755.09,0.281
754.11,0.284
753.13,0.287
752.15,0.291
751.17,0.300
750.1899999999999,0.297
749.21,0.295
748.23,0.296
747.25,0.300
746.27,0.296
745.29,0.297
744.31,0.294
743.33,0.297
742.35,0.301
741.37,0.303
740.39,0.310
739.41,0.305
738.43,0.304
737.4499999999999,0.308
736.47,0.307
735.49,0.317
734.51,0.313
733.53,0.312
732.55,0.315
731.5699999999999,0.314
730.59,0.317
729.61,0.321
728.63,0.326
727.65,0.328
726.67,0.329
725.6899999999999,0.331
724.71,0.343
723.73,0.351
722.75,0.359
721.77,0.374
720.79,0.383
719.81,0.391
718.83,0.410
717.85,0.419
716.87,0.428
715.89,0.446
714.91,0.466
713.93,0.485
712.9499999999999,0.502
711.97,0.518
710.99,0.536
710.01,0.546
709.03,0.562
708.05,0.585
707.0699999999999,0.602
706.09,0.619
705.11,0.629
704.13,0.639
703.15,0.658
702.17,0.673
701.1899999999999,0.688
700.21,0.703
699.23,0.719
698.25,0.735
697.27,0.742
696.29,0.752
695.31,0.768
694.33,0.778
693.35,0.790
692.37,0.799
691.39,0.805
690.41,0.807
689.43,0.821
688.4499999999999,0.818
687.47,0.815
686.49,0.817
685.51,0.821
684.53,0.824
683.55,0.820
682.5699999999999,0.816
681.59,0.815
680.61,0.814
679.63,0.808
678.65,0.803
677.67,0.800
676.6899999999999,0.801
675.71,0.796
674.73,0.798
673.75,0.798
672.77,0.798
671.79,0.803
670.81,0.807
669.83,0.804
668.85,0.801
667.87,0.799
666.89,0.797
665.91,0.791
664.93,0.796
663.9499999999999,0.797
662.97,0.794
661.99,0.789
661.01,0.796
660.03,0.792
659.05,0.788
658.0699999999999,0.786
657.09,0.791
656.11,0.793
655.13,0.790
654.15,0.788
653.17,0.787
652.1899999999999,0.790
651.21,0.788
650.23,0.788
649.25,0.792
648.27,0.795
647.29,0.796
646.31,0.796
645.33,0.794
644.35,0.795
643.37,0.795
642.39,0.801
641.41,0.801
640.43,0.799
639.4499999999999,0.797
638.47,0.793
637.49,0.796
636.51,0.799
635.53,0.805
634.55,0.808
633.5699999999999,0.807
632.59,0.810
631.61,0.815
630.63,0.821
629.65,0.822
628.67,0.819
627.6899999999999,0.817
626.71,0.823
625.73,0.826
624.75,0.829
623.77,0.830
622.79,0.825
621.81,0.820
620.83,0.812
619.85,0.811
618.87,0.813
617.89,0.816
616.91,0.821
615.93,0.819
614.95,0.812
613.97,0.812
612.99,0.815
612.01,0.818
611.03,0.820
610.05,0.823
609.0699999999999,0.839
608.09,0.841
607.11,0.841
606.13,0.846
605.15,0.850
604.17,0.850
603.1899999999999,0.854
602.21,0.857
601.23,0.852
600.25,0.856
599.27,0.850
598.29,0.849
597.31,0.851
596.33,0.848
595.35,0.846
594.37,0.844
593.39,0.845
592.41,0.845
591.43,0.843
590.45,0.842
589.47,0.844
588.49,0.843
587.51,0.836
586.53,0.834
585.55,0.832
584.5699999999999,0.830
583.59,0.834
582.61,0.845
581.63,0.862
580.65,0.859
579.67,0.871
578.6899999999999,0.887
577.71,0.893
576.73,0.908
575.75,0.928
574.77,0.942
573.79,0.955
572.81,0.970
571.83,0.988
570.85,1.000
569.87,0.992
568.89,0.986
567.91,0.987
566.93,0.982
565.95,0.981
564.97,0.974
563.99,0.963
563.01,0.964
562.03,0.959
561.05,0.950
560.0699999999999,0.943
559.09,0.949
558.11,0.933
557.13,0.922
556.15,0.917
555.17,0.915
554.1899999999999,0.910
553.21,0.919
552.23,0.920
551.25,0.915
550.27,0.911
549.29,0.913
548.31,0.912
547.33,0.907
546.35,0.905
545.37,0.903
544.39,0.907
543.41,0.895
542.43,0.891
541.45,0.889
540.47,0.890
539.49,0.879
538.51,0.874
537.53,0.869
536.55,0.862
535.5699999999999,0.857
534.59,0.859
533.61,0.856
532.63,0.854
531.65,0.856
530.67,0.863
529.6899999999999,0.871
528.71,0.875
527.73,0.881
526.75,0.892
525.77,0.892
524.79,0.901
523.81,0.900
522.83,0.901
521.85,0.905
520.87,0.905
519.89,0.905
518.91,0.907
517.93,0.907
516.95,0.912
515.97,0.910
514.99,0.907
514.01,0.897
513.03,0.886
512.05,0.885
511.07,0.872
510.09,0.863
509.11,0.851
508.13,0.836
507.15,0.824
506.17,0.812
505.19,0.792
504.21,0.776
503.23,0.765
502.25,0.739
501.27,0.728
500.28999999999996,0.715
499.31,0.698
498.33,0.685
497.34999999999997,0.666
496.37,0.657
495.39,0.652
494.40999999999997,0.646
493.43,0.643
492.45,0.636
491.46999999999997,0.631
490.49,0.629
489.51,0.630
488.53,0.628
487.55,0.627
486.57,0.621
485.59,0.619
484.61,0.616
483.63,0.613
482.65,0.613
481.67,0.610
480.69,0.609
479.71,0.605
478.73,0.602
477.75,0.599
476.77,0.598
475.78999999999996,0.594
474.81,0.590
473.83,0.587
472.84999999999997,0.582
471.87,0.575
470.89,0.566
469.90999999999997,0.558
468.93,0.548
467.95,0.541
466.96999999999997,0.533
465.99,0.526
465.01,0.512
464.03,0.504
463.05,0.494
462.07,0.479
461.09,0.469
460.11,0.455
459.13,0.444
458.15,0.433
457.17,0.422
456.19,0.412
455.21,0.401
454.23,0.393
453.25,0.386
452.27,0.380
451.28999999999996,0.378
450.31,0.372
449.33,0.371
448.34999999999997,0.369
447.37,0.368
446.39,0.366
445.40999999999997,0.367
444.43,0.365
443.45,0.361
442.46999999999997,0.358
441.49,0.356
440.51,0.356
439.53,0.356
438.55,0.356
437.57,0.354
436.59,0.353
435.61,0.351
434.63,0.347
433.65,0.342
432.67,0.340
431.69,0.337
430.71,0.336
429.73,0.332
428.75,0.329
427.77,0.323
426.79,0.317
425.81,0.307
424.83,0.299
423.84999999999997,0.290
422.87,0.284
421.89,0.278
420.90999999999997,0.273
419.93,0.266
418.95,0.262
417.96999999999997,0.260
416.99,0.257
416.01,0.253
415.03,0.253
414.05,0.253
413.07,0.249
412.09,0.248
411.11,0.249
410.13,0.249
409.15,0.245
408.17,0.247
407.19,0.242
406.21,0.240
405.23,0.241
404.25,0.240
403.27,0.240
402.29,0.239
401.31,0.239
400.33,0.236
399.34999999999997,0.238
398.37,0.238
397.39,0.236
396.40999999999997,0.235
395.43,0.237
394.45,0.232
393.46999999999997,0.230
392.49,0.232
391.51,0.232
390.53,0.230
389.55,0.231
388.57,0.228
387.59,0.227
386.61,0.230
385.63,0.230
384.65,0.231
383.67,0.232
382.69,0.232
381.71,0.232
380.73,0.237
