wavelength,amplitude
956.97,0.103
955.99,0.090
955.01,0.086
954.03,0.088
953.05,0.092
952.0699999999999,0.084
951.09,0.085
950.11,0.085
949.13,0.081
948.15,0.084
947.17,0.079
946.1899999999999,0.080
945.21,0.081
944.23,0.080
943.25,0.083
942.27,0.085
941.29,0.086
940.31,0.083
939.3299999999999,0.080
938.35,0.085
937.37,0.087
936.39,0.085
935.41,0.082
934.43,0.079
933.4499999999999,0.083
932.47,0.076
931.49,0.078
930.51,0.080
929.53,0.080
928.55,0.079
927.5699999999999,0.083
926.59,0.083
925.61,0.077
924.63,0.080
923.65,0.074
922.67,0.077
921.6899999999999,0.079
920.71,0.079
919.73,0.072
918.75,0.079
917.77,0.079
916.79,0.075
915.81,0.082
914.8299999999999,0.079
913.85,0.076
912.87,0.078
911.89,0.076
910.91,0.074
909.93,0.070
908.9499999999999,0.075
907.97,0.079
906.99,0.073
906.01,0.080
905.03,0.076
904.05,0.081
903.0699999999999,0.080
902.09,0.074
901.11,0.070
900.13,0.074
899.15,0.072
898.17,0.074
897.1899999999999,0.076
896.21,0.075
895.23,0.072
894.25,0.074
893.27,0.077
892.29,0.068
891.31,0.062
890.3299999999999,0.068
889.35,0.068
888.37,0.075
887.39,0.077
886.41,0.082
885.43,0.073
884.4499999999999,0.072
883.47,0.077
882.49,0.069
881.51,0.071
880.53,0.069
879.55,0.069
878.5699999999999,0.079
877.59,0.078
876.61,0.072
875.63,0.078
874.65,0.084
873.67,0.074
872.6899999999999,0.077
871.71,0.080
870.73,0.064
869.75,0.070
868.77,0.057
867.79,0.064
866.81,0.070
865.83,0.068
864.85,0.068
863.87,0.079
862.89,0.076
861.91,0.077
860.93,0.071
859.9499999999999,0.077
858.97,0.076
857.99,0.081
857.01,0.084
856.03,0.078
855.05,0.091
854.0699999999999,0.087
853.09,0.075
852.11,0.072
851.13,0.070
850.15,0.070
849.17,0.071
848.1899999999999,0.066
847.21,0.064
846.23,0.067
845.25,0.069
844.27,0.069
843.29,0.063
842.31,0.069
841.33,0.076
840.35,0.073
839.37,0.075
838.39,0.072
837.41,0.073
836.43,0.071
835.4499999999999,0.080
834.47,0.078
833.49,0.077
832.51,0.071
831.53,0.072
830.55,0.072
829.5699999999999,0.072
828.59,0.070
827.61,0.067
826.63,0.068
825.65,0.069
824.67,0.075
823.6899999999999,0.072
822.71,0.079
821.73,0.078
820.75,0.074
819.77,0.079
818.79,0.081
817.81,0.081
816.83,0.074
815.85,0.074
814.87,0.073
813.89,0.078
812.91,0.079
811.93,0.085
810.9499999999999,0.084
809.97,0.089
808.99,0.091
808.01,0.089
807.03,0.094
806.05,0.089
805.0699999999999,0.090
804.09,0.100
803.11,0.099
802.13,0.101
801.15,0.101
800.17,0.100
799.1899999999999,0.101
798.21,0.112
797.23,0.105
796.25,0.107
795.27,0.109
794.29,0.107
793.31,0.116
792.33,0.123
791.35,0.122
790.37,0.124
789.39,0.124
788.41,0.120
787.43,0.123
786.4499999999999,0.125
785.47,0.131
784.49,0.127
783.51,0.125
782.53,0.130
781.55,0.127
780.5699999999999,0.130
779.59,0.120
778.61,0.118
777.63,0.124
776.65,0.131
775.67,0.134
774.6899999999999,0.132
773.71,0.136
772.73,0.140
771.75,0.139
770.77,0.137
769.79,0.146
768.81,0.138
767.83,0.143
766.85,0.151
765.87,0.157
764.89,0.159
763.91,0.166
762.93,0.170
761.9499999999999,0.172
760.97,0.173
759.99,0.177
759.01,0.177
758.03,0.177
757.05,0.178
756.0699999999999,0.184
755.09,0.183
754.11,0.184
753.13,0.191
752.15,0.193
751.17,0.187
750.1899999999999,0.202
749.21,0.205
748.23,0.205
747.25,0.199
746.27,0.208
745.29,0.215
744.31,0.219
743.33,0.225
742.35,0.226
741.37,0.230
740.39,0.237
739.41,0.242
738.43,0.249
737.4499999999999,0.255
736.47,0.256
735.49,0.253
734.51,0.260
733.53,0.273
732.55,0.281
731.5699999999999,0.289
730.59,0.296
729.61,0.302
728.63,0.316
727.65,0.325
726.67,0.335
725.6899999999999,0.337
724.71,0.342
723.73,0.345
722.75,0.351
721.77,0.362
720.79,0.367
719.81,0.371
718.83,0.376
717.85,0.374
716.87,0.376
715.89,0.392
714.91,0.405
713.93,0.409
712.9499999999999,0.422
711.97,0.426
710.99,0.426
710.01,0.431
709.03,0.441
708.05,0.446
707.0699999999999,0.452
706.09,0.458
705.11,0.465
704.13,0.469
703.15,0.474
702.17,0.480
701.1899999999999,0.489
700.21,0.493
699.23,0.493
698.25,0.496
697.27,0.508
696.29,0.520
695.31,0.529
694.33,0.539
693.35,0.541
692.37,0.545
691.39,0.560
690.41,0.567
689.43,0.579
688.4499999999999,0.581
687.47,0.586
686.49,0.593
685.51,0.600
684.53,0.608
683.55,0.611
682.5699999999999,0.607
681.59,0.616
680.61,0.618
679.63,0.623
678.65,0.627
677.67,0.625
676.6899999999999,0.625
675.71,0.624
674.73,0.626
673.75,0.631
672.77,0.640
671.79,0.652
670.81,0.649
669.83,0.649
668.85,0.650
667.87,0.651
666.89,0.649
665.91,0.652
664.93,0.660
663.9499999999999,0.668
662.97,0.672
661.99,0.674
661.01,0.684
660.03,0.689
659.05,0.691
658.0699999999999,0.694
657.09,0.702
656.11,0.701
655.13,0.704
654.15,0.712
653.17,0.719
652.1899999999999,0.732
651.21,0.743
650.23,0.747
649.25,0.756
648.27,0.765
647.29,0.773
646.31,0.784
645.33,0.798
644.35,0.801
643.37,0.819
642.39,0.839
641.41,0.850
640.43,0.855
639.4499999999999,0.862
638.47,0.880
637.49,0.900
636.51,0.913
635.53,0.912
634.55,0.935
633.5699999999999,0.949
632.59,0.956
631.61,0.963
630.63,0.974
629.65,0.988
628.67,0.994
627.6899999999999,1.000
626.71,0.995
625.73,0.988
624.75,0.991
623.77,0.980
622.79,0.972
621.81,0.972
620.83,0.964
619.85,0.936
618.87,0.917
617.89,0.903
616.91,0.883
615.93,0.859
614.95,0.837
613.97,0.821
612.99,0.809
612.01,0.792
611.03,0.776
610.05,0.766
609.0699999999999,0.758
608.09,0.755
607.11,0.752
606.13,0.747
605.15,0.746
604.17,0.744
603.1899999999999,0.736
602.21,0.723
601.23,0.729
600.25,0.731
599.27,0.728
598.29,0.720
597.31,0.716
596.33,0.715
595.35,0.712
594.37,0.703
593.39,0.702
592.41,0.698
591.43,0.696
590.45,0.696
589.47,0.695
588.49,0.681
587.51,0.683
586.53,0.681
585.55,0.684
584.5699999999999,0.691
583.59,0.686
582.61,0.693
581.63,0.701
580.65,0.703
579.67,0.707
578.6899999999999,0.711
577.71,0.706
576.73,0.703
575.75,0.709
574.77,0.716
573.79,0.713
572.81,0.711
571.83,0.712
570.85,0.714
569.87,0.705
568.89,0.686
567.91,0.677
566.93,0.674
565.95,0.674
564.97,0.660
563.99,0.647
563.01,0.639
562.03,0.634
561.05,0.628
560.0699999999999,0.620
559.09,0.610
558.11,0.603
557.13,0.596
556.15,0.589
555.17,0.580
554.1899999999999,0.580
553.21,0.579
552.23,0.577
551.25,0.574
550.27,0.571
549.29,0.574
548.31,0.578
547.33,0.578
546.35,0.571
545.37,0.574
544.39,0.575
543.41,0.577
542.43,0.581
541.45,0.584
540.47,0.580
539.49,0.583
538.51,0.585
537.53,0.576
536.55,0.582
535.5699999999999,0.577
534.59,0.574
533.61,0.568
532.63,0.568
531.65,0.567
530.67,0.564
529.6899999999999,0.555
528.71,0.546
527.73,0.545
526.75,0.535
525.77,0.528
524.79,0.519
523.81,0.505
522.83,0.502
521.85,0.489
520.87,0.480
519.89,0.469
518.91,0.451
517.93,0.440
516.95,0.429
515.97,0.417
514.99,0.404
514.01,0.389
513.03,0.384
512.05,0.369
511.07,0.356
510.09,0.344
509.11,0.331
508.13,0.318
507.15,0.309
506.17,0.302
505.19,0.292
504.21,0.273
503.23,0.270
502.25,0.261
501.27,0.253
500.28999999999996,0.243
499.31,0.239
498.33,0.236
497.34999999999997,0.234
496.37,0.230
495.39,0.232
494.40999999999997,0.232
493.43,0.233
492.45,0.235
491.46999999999997,0.239
490.49,0.242
489.51,0.247
488.53,0.256
487.55,0.263
486.57,0.270
485.59,0.277
484.61,0.287
483.63,0.296
482.65,0.300
481.67,0.310
480.69,0.319
479.71,0.327
478.73,0.330
477.75,0.336
476.77,0.343
475.78999999999996,0.347
474.81,0.349
473.83,0.348
472.84999999999997,0.345
471.87,0.337
470.89,0.330
469.90999999999997,0.320
468.93,0.315
467.95,0.306
466.96999999999997,0.294
465.99,0.280
465.01,0.264
464.03,0.251
463.05,0.236
462.07,0.219
461.09,0.202
460.11,0.186
459.13,0.169
458.15,0.153
457.17,0.139
456.19,0.127
455.21,0.120
454.23,0.110
453.25,0.103
452.27,0.091
451.28999999999996,0.084
450.31,0.080
449.33,0.073
448.34999999999997,0.069
447.37,0.064
446.39,0.057
445.40999999999997,0.055
444.43,0.049
443.45,0.044
442.46999999999997,0.041
441.49,0.040
440.51,0.040
439.53,0.038
438.55,0.038
437.57,0.035
436.59,0.035
435.61,0.034
434.63,0.036
433.65,0.033
432.67,0.031
431.69,0.032
430.71,0.032
429.73,0.030
428.75,0.031
427.77,0.029
426.79,0.029
425.81,0.028
424.83,0.027
423.84999999999997,0.025
422.87,0.025
421.89,0.025
420.90999999999997,0.024
419.93,0.024
418.95,0.024
417.96999999999997,0.024
416.99,0.024
416.01,0.023
415.03,0.025
414.05,0.026
413.07,0.025
412.09,0.024
411.11,0.025
410.13,0.025
409.15,0.025
408.17,0.024
407.19,0.023
406.21,0.023
405.23,0.024
404.25,0.024
403.27,0.024
402.29,0.022
401.31,0.024
400.33,0.023
399.34999999999997,0.023
398.37,0.023
397.39,0.023
396.40999999999997,0.022
395.43,0.023
394.45,0.024
393.46999999999997,0.024
392.49,0.022
391.51,0.022
390.53,0.021
389.55,0.021
388.57,0.021
387.59,0.021
386.61,0.020
385.63,0.020
384.65,0.021
383.67,0.021
382.69,0.021
381.71,0.022
380.73,0.022
