wavelength,amplitude
999.1956,0.006
998.2102000000001,0.006
997.2248000000001,0.005
996.2394,0.005
995.254,0.006
994.2686000000001,0.006
993.2832000000001,0.005
992.2978,0.006
991.3124,0.006
990.327,0.006
989.3416000000001,0.005
988.3562000000001,0.005
987.3708,0.005
986.3854,0.006
985.4000000000001,0.005
984.4146000000001,0.005
983.4292,0.005
982.4438,0.006
981.4584000000001,0.006
980.4730000000001,0.006
979.4876,0.006
978.5022,0.005
977.5168000000001,0.005
976.5314000000001,0.005
975.546,0.005
974.5606,0.006
973.5752000000001,0.005
972.5898000000001,0.006
971.6044,0.005
970.619,0.005
969.6336,0.005
968.6482000000001,0.005
967.6628000000001,0.006
966.6774,0.006
965.692,0.006
964.7066000000001,0.005
963.7212000000001,0.006
962.7358,0.006
961.7504,0.006
960.7650000000001,0.005
959.7796000000001,0.005
958.7942,0.006
957.8088,0.005
956.8234000000001,0.005
955.8380000000001,0.005
954.8526,0.005
953.8672,0.006
952.8818,0.006
951.8964000000001,0.005
950.9110000000001,0.005
949.9256,0.005
948.9402,0.006
947.9548000000001,0.005
946.9694000000001,0.005
945.984,0.006
944.9986,0.006
944.0132000000001,0.006
943.0278000000001,0.006
942.0424,0.006
941.057,0.005
940.0716000000001,0.005
939.0862000000001,0.006
938.1008,0.005
937.1154,0.005
936.13,0.005
935.1446000000001,0.005
934.1592,0.005
933.1738,0.005
932.1884,0.006
931.2030000000001,0.006
930.2176000000001,0.006
929.2322,0.005
928.2468,0.005
927.2614000000001,0.005
926.2760000000001,0.006
925.2906,0.005
924.3052,0.005
923.3198000000001,0.006
922.3344000000001,0.006
921.349,0.005
920.3636,0.005
919.3782000000001,0.005
918.3928000000001,0.006
917.4074,0.006
916.422,0.006
915.4366,0.006
914.4512000000001,0.006
913.4658000000001,0.006
912.4804,0.006
911.495,0.006
910.5096000000001,0.006
909.5242000000001,0.006
908.5388,0.006
907.5534,0.005
906.5680000000001,0.005
905.5826000000001,0.005
904.5972,0.006
903.6118,0.006
902.6264000000001,0.006
901.6410000000001,0.006
900.6556,0.006
899.6702,0.005
898.6848,0.005
897.6994000000001,0.006
896.714,0.006
895.7286,0.006
894.7432,0.005
893.7578000000001,0.006
892.7724000000001,0.006
891.787,0.005
890.8016,0.006
889.8162000000001,0.006
888.8308000000001,0.006
887.8454,0.006
886.86,0.005
885.8746000000001,0.006
884.8892000000001,0.006
883.9038,0.006
882.9184,0.006
881.933,0.006
880.9476000000001,0.006
879.9622,0.005
878.9768,0.005
877.9914,0.005
877.0060000000001,0.005
876.0206000000001,0.005
875.0352,0.005
874.0498,0.005
873.0644000000001,0.005
872.0790000000001,0.004
871.0936,0.004
870.1082,0.004
869.1228000000001,0.004
868.1374000000001,0.004
867.152,0.004
866.1666,0.005
865.1812000000001,0.005
864.1958000000001,0.005
863.2104,0.005
862.225,0.006
861.2396,0.006
860.2542000000001,0.006
859.2688,0.006
858.2834,0.006
857.298,0.005
856.3126000000001,0.005
855.3272000000001,0.005
854.3418,0.005
853.3564,0.005
852.3710000000001,0.005
851.3856000000001,0.004
850.4002,0.004
849.4148,0.004
848.4294000000001,0.004
847.4440000000001,0.004
846.4586,0.004
845.4732,0.004
844.4878,0.004
843.5024000000001,0.004
842.517,0.004
841.5316,0.004
840.5462,0.004
839.5608000000001,0.004
838.5754000000001,0.004
837.59,0.004
836.6046,0.004
835.6192000000001,0.005
834.6338000000001,0.004
833.6484,0.004
832.663,0.004
831.6776000000001,0.003
830.6922000000001,0.004
829.7068,0.004
828.7214,0.005
827.736,0.005
826.7506000000001,0.004
825.7652,0.004
824.7798,0.004
823.7944,0.004
822.8090000000001,0.004
821.8236,0.004
820.8382,0.004
819.8528,0.004
818.8674000000001,0.004
817.8820000000001,0.004
816.8966,0.004
815.9112,0.004
814.9258000000001,0.004
813.9404000000001,0.004
812.955,0.004
811.9696,0.004
810.9842000000001,0.003
809.9988000000001,0.004
809.0134,0.004
808.028,0.004
807.0426,0.004
806.0572000000001,0.005
805.0718,0.005
804.0864,0.005
803.101,0.004
802.1156000000001,0.005
801.1302000000001,0.005
800.1448,0.005
799.1594,0.005
798.1740000000001,0.006
797.1886000000001,0.005
796.2032,0.006
795.2178,0.006
794.2324000000001,0.006
793.2470000000001,0.006
792.2616,0.006
791.2762,0.006
790.2908,0.006
789.3054000000001,0.007
788.32,0.007
787.3346,0.007
786.3492,0.007
785.3638000000001,0.008
784.3784,0.009
783.393,0.009
782.4076,0.010
781.4222000000001,0.010
780.4368000000001,0.010
779.4514,0.011
778.466,0.012
777.4806000000001,0.015
776.4952000000001,0.017
775.5098,0.020
774.5244,0.023
773.539,0.026
772.5536000000001,0.030
771.5682,0.035
770.5828,0.041
769.5974,0.045
768.6120000000001,0.047
767.6266,0.048
766.6412,0.050
765.6558,0.055
764.6704000000001,0.066
763.6850000000001,0.086
762.6996,0.117
761.7142,0.158
760.7288000000001,0.215
759.7434000000001,0.293
758.758,0.369
757.7726,0.457
756.7872,0.547
755.8018000000001,0.657
754.8164,0.760
753.831,0.858
752.8456,0.946
751.8602000000001,0.996
750.8748,1.000
749.8894,0.967
748.904,0.912
747.9186000000001,0.842
746.9332,0.765
745.9478,0.677
744.9624,0.579
743.9770000000001,0.480
742.9916000000001,0.390
742.0062,0.302
741.0208,0.223
740.0354000000001,0.165
739.0500000000001,0.127
738.0646,0.108
737.0792,0.098
736.0938,0.084
735.1084000000001,0.074
734.123,0.057
733.1376,0.042
732.1522,0.031
731.1668000000001,0.024
730.1814,0.019
729.196,0.018
728.2106,0.015
727.2252000000001,0.015
726.2398000000001,0.012
725.2544,0.011
724.269,0.011
723.2836000000001,0.010
722.2982000000001,0.009
721.3128,0.009
720.3274,0.009
719.342,0.008
718.3566000000001,0.008
717.3712,0.007
716.3858,0.008
715.4004,0.008
714.4150000000001,0.008
713.4296,0.008
712.4442,0.008
711.4588,0.007
710.4734000000001,0.007
709.488,0.007
708.5026,0.007
707.5172,0.008
706.5318000000001,0.008
705.5464000000001,0.008
704.561,0.008
703.5756,0.007
702.5902,0.008
701.6048000000001,0.008
700.6194,0.008
699.634,0.008
698.6486,0.007
697.6632000000001,0.007
696.6778,0.007
695.6924,0.006
694.707,0.006
693.7216000000001,0.006
692.7362,0.006
691.7508,0.006
690.7654,0.007
689.7800000000001,0.006
688.7946000000001,0.006
687.8092,0.006
686.8238,0.006
685.8384000000001,0.006
684.8530000000001,0.006
683.8676,0.006
682.8822,0.006
681.8968,0.006
680.9114000000001,0.007
679.926,0.007
678.9406,0.007
677.9552,0.007
676.9698000000001,0.006
675.9844,0.006
674.999,0.006
674.0136,0.006
673.0282000000001,0.007
672.0428,0.007
671.0574,0.007
670.072,0.007
669.0866000000001,0.006
668.1012000000001,0.007
667.1158,0.007
666.1304,0.007
665.145,0.008
664.1596000000001,0.007
663.1742,0.007
662.1888,0.007
661.2034,0.008
660.2180000000001,0.009
659.2326,0.009
658.2472,0.010
657.2618,0.011
656.2764000000001,0.011
655.291,0.011
654.3056,0.012
653.3202,0.012
652.3348000000001,0.013
651.3494000000001,0.014
650.364,0.016
649.3786,0.020
648.3932,0.028
647.4078000000001,0.038
646.4224,0.052
645.437,0.068
644.4516,0.089
643.4662000000001,0.114
642.4808,0.139
641.4954,0.164
640.51,0.185
639.5246000000001,0.199
638.5392,0.202
637.5538,0.194
636.5684,0.182
635.5830000000001,0.166
634.5976,0.149
633.6122,0.127
632.6268,0.108
631.6414000000001,0.091
630.6560000000001,0.081
629.6706,0.076
628.6852,0.074
627.6998,0.074
626.7144000000001,0.074
625.729,0.072
624.7436,0.068
623.7582,0.062
622.7728000000001,0.055
621.7874,0.047
620.802,0.039
619.8166,0.031
618.8312000000001,0.026
617.8458,0.023
616.8604,0.021
615.875,0.020
614.8896000000001,0.020
613.9042000000001,0.021
612.9188,0.021
611.9334,0.021
610.948,0.022
609.9626000000001,0.023
608.9772,0.025
607.9918,0.027
607.0064,0.030
606.0210000000001,0.035
605.0356,0.041
604.0502,0.047
603.0648,0.052
602.0794000000001,0.057
601.094,0.060
600.1086,0.062
599.1232,0.061
598.1378000000001,0.058
597.1524000000001,0.055
596.167,0.049
595.1816,0.044
594.1962,0.039
593.2108000000001,0.035
592.2254,0.032
591.24,0.030
590.2546,0.030
589.2692000000001,0.030
588.2838,0.028
587.2984,0.028
586.313,0.028
585.3276000000001,0.028
584.3422,0.028
583.3568,0.029
582.3714,0.029
581.3860000000001,0.030
580.4006,0.031
579.4152,0.036
578.4298,0.043
577.4444000000001,0.053
576.4590000000001,0.066
575.4736,0.080
574.4882,0.096
573.5028,0.113
572.5174000000001,0.130
571.532,0.142
570.5466,0.147
569.5612,0.145
568.5758000000001,0.137
567.5904,0.126
566.605,0.111
565.6196,0.095
564.6342000000001,0.079
563.6488,0.063
562.6634,0.049
561.678,0.038
560.6926000000001,0.031
559.7072000000001,0.026
558.7218,0.024
557.7364,0.022
556.751,0.019
555.7656000000001,0.018
554.7802,0.016
553.7948,0.014
552.8094,0.013
551.8240000000001,0.013
550.8386,0.013
549.8532,0.013
548.8678,0.012
547.8824000000001,0.013
546.897,0.013
545.9116,0.012
544.9262,0.013
543.9408000000001,0.012
542.9554,0.012
541.97,0.012
540.9846,0.012
539.9992,0.011
539.0138000000001,0.011
538.0284,0.011
537.043,0.011
536.0576,0.011
535.0722000000001,0.011
534.0868,0.011
533.1014,0.012
532.116,0.012
531.1306000000001,0.013
530.1452,0.013
529.1598,0.013
528.1744,0.014
527.1890000000001,0.014
526.2036,0.014
525.2182,0.014
524.2328,0.014
523.2474000000001,0.014
522.2620000000001,0.014
521.2766,0.014
520.2912,0.015
519.3058,0.017
518.3204000000001,0.019
517.335,0.021
516.3496,0.022
515.3642,0.024
514.3788000000001,0.024
513.3934,0.025
512.408,0.025
511.42260000000005,0.025
510.4372,0.025
509.45180000000005,0.026
508.4664,0.029
507.48100000000005,0.034
506.4956,0.042
505.51020000000005,0.052
504.5248,0.067
503.5394,0.086
502.55400000000003,0.102
501.5686,0.118
500.58320000000003,0.133
499.5978,0.142
498.61240000000004,0.147
497.627,0.145
496.64160000000004,0.137
495.6562,0.123
494.67080000000004,0.107
493.6854,0.087
492.70000000000005,0.067
491.7146,0.047
490.72920000000005,0.032
489.7438,0.020
488.75840000000005,0.013
487.773,0.009
486.78760000000005,0.007
485.8022,0.006
484.8168,0.006
483.83140000000003,0.006
482.846,0.005
481.86060000000003,0.004
480.8752,0.005
479.88980000000004,0.004
478.9044,0.005
477.91900000000004,0.004
476.9336,0.004
475.94820000000004,0.004
474.9628,0.004
473.97740000000005,0.004
472.992,0.003
472.00660000000005,0.003
471.0212,0.004
470.03580000000005,0.003
469.0504,0.003
468.065,0.004
467.0796,0.004
466.0942,0.003
465.10880000000003,0.004
464.1234,0.003
463.13800000000003,0.003
462.1526,0.003
461.16720000000004,0.003
460.1818,0.004
459.19640000000004,0.003
458.211,0.004
457.22560000000004,0.003
456.2402,0.003
455.25480000000005,0.003
454.2694,0.004
453.28400000000005,0.004
452.2986,0.004
451.31320000000005,0.004
450.3278,0.004
449.3424,0.003
448.357,0.003
447.3716,0.003
446.38620000000003,0.003
445.4008,0.003
444.41540000000003,0.003
443.43,0.003
442.44460000000004,0.003
441.4592,0.003
440.47380000000004,0.003
439.4884,0.003
438.50300000000004,0.003
437.5176,0.003
436.53220000000005,0.003
435.5468,0.003
434.56140000000005,0.003
433.576,0.003
432.59060000000005,0.004
431.6052,0.004
430.6198,0.003
429.6344,0.003
428.649,0.003
427.66360000000003,0.003
426.6782,0.003
425.69280000000003,0.003
424.7074,0.003
423.72200000000004,0.003
422.7366,0.003
421.75120000000004,0.003
420.7658,0.003
419.78040000000004,0.004
418.795,0.003
417.80960000000005,0.004
416.8242,0.004
415.83880000000005,0.004
414.8534,0.003
413.868,0.004
412.8826,0.004
411.8972,0.003
410.9118,0.003
409.9264,0.003
408.94100000000003,0.003
407.9556,0.003
406.97020000000003,0.003
405.9848,0.003
404.99940000000004,0.003
404.014,0.003
403.02860000000004,0.003
402.0432,0.003
401.05780000000004,0.003
400.0724,0.004
399.08700000000005,0.004
398.1016,0.003
397.11620000000005,0.004
396.1308,0.003
395.1454,0.003
394.16,0.004
393.1746,0.003
392.1892,0.003
391.2038,0.003
390.21840000000003,0.004
389.233,0.003
388.24760000000003,0.004
387.2622,0.003
386.27680000000004,0.003
385.2914,0.003
384.30600000000004,0.003
383.3206,0.003
382.33520000000004,0.003
381.3498,0.003
380.36440000000005,0.003
