wavelength,amplitude
700.7,0.018
699.9300000000001,0.015
699.16,0.015
698.39,0.015
697.62,0.016
696.85,0.015
696.08,0.015
695.3100000000001,0.015
694.54,0.015
693.77,0.016
693.0,0.015
692.23,0.016
691.46,0.015
690.69,0.015
689.9200000000001,0.015
689.15,0.016
688.38,0.015
687.61,0.016
686.84,0.015
686.07,0.015
685.3000000000001,0.015
684.53,0.015
683.76,0.015
682.99,0.015
682.22,0.015
681.45,0.015
680.6800000000001,0.016
679.91,0.015
679.14,0.015
678.37,0.015
677.6,0.015
676.83,0.015
676.0600000000001,0.015
675.29,0.015
674.52,0.015
673.75,0.015
672.98,0.015
672.21,0.015
671.44,0.014
670.67,0.015
669.9,0.015
669.13,0.015
668.36,0.014
667.59,0.014
666.82,0.014
666.0500000000001,0.014
665.28,0.014
664.51,0.015
663.74,0.014
662.97,0.015
662.2,0.014
661.4300000000001,0.015
660.66,0.015
659.89,0.014
659.12,0.014
658.35,0.014
657.58,0.014
656.8100000000001,0.014
656.04,0.014
655.27,0.015
654.5,0.014
653.73,0.014
652.96,0.014
652.19,0.015
651.42,0.015
650.65,0.015
649.88,0.014
649.11,0.014
648.34,0.014
647.57,0.015
646.8000000000001,0.014
646.03,0.015
645.26,0.014
644.49,0.015
643.72,0.014
642.95,0.014
642.1800000000001,0.016
641.41,0.014
640.64,0.015
639.87,0.014
639.1,0.014
638.33,0.014
637.5600000000001,0.013
636.79,0.013
636.02,0.013
635.25,0.014
634.48,0.011
633.71,0.010
632.94,0.011
632.17,0.011
631.4,0.010
630.63,0.011
629.86,0.011
629.09,0.011
628.32,0.011
627.5500000000001,0.012
626.78,0.012
626.01,0.013
625.24,0.014
624.47,0.016
623.7,0.021
622.9300000000001,0.027
622.16,0.033
621.39,0.040
620.62,0.044
619.85,0.048
619.08,0.050
618.3100000000001,0.049
617.54,0.044
616.77,0.034
616.0,0.027
615.23,0.021
614.46,0.019
613.69,0.019
612.92,0.019
612.15,0.020
611.38,0.022
610.61,0.026
609.84,0.033
609.07,0.038
608.3000000000001,0.042
607.53,0.049
606.76,0.054
605.99,0.061
605.22,0.068
604.45,0.078
603.6800000000001,0.090
602.91,0.102
602.14,0.113
601.37,0.118
600.6,0.121
599.83,0.121
599.0600000000001,0.121
598.29,0.122
597.52,0.120
596.75,0.121
595.98,0.125
595.21,0.125
594.44,0.132
593.67,0.138
592.9,0.152
592.13,0.171
591.36,0.213
590.59,0.310
589.82,0.460
589.0500000000001,0.648
588.28,0.835
587.51,0.951
586.74,1.000
585.97,0.993
585.2,0.926
584.4300000000001,0.786
583.66,0.616
582.89,0.446
582.12,0.287
581.35,0.164
580.58,0.094
579.8100000000001,0.063
579.04,0.043
578.27,0.040
577.5,0.037
576.73,0.031
575.96,0.029
575.19,0.027
574.42,0.026
573.65,0.025
572.88,0.024
572.11,0.025
571.34,0.026
570.57,0.027
569.8000000000001,0.027
569.03,0.026
568.26,0.027
567.49,0.026
566.72,0.027
565.95,0.027
565.1800000000001,0.028
564.41,0.029
563.64,0.031
562.87,0.030
562.1,0.032
561.33,0.035
560.5600000000001,0.039
559.79,0.042
559.02,0.050
558.25,0.061
557.48,0.073
556.71,0.085
555.94,0.099
555.17,0.109
554.4,0.118
553.63,0.120
552.86,0.114
552.09,0.109
551.32,0.105
550.5500000000001,0.097
549.78,0.089
549.01,0.080
548.24,0.069
547.47,0.059
546.7,0.052
545.9300000000001,0.046
545.16,0.043
544.39,0.039
543.62,0.036
542.85,0.036
542.08,0.034
541.3100000000001,0.032
540.54,0.033
539.77,0.033
539.0,0.034
538.23,0.035
537.46,0.036
536.69,0.038
535.92,0.038
535.15,0.037
534.38,0.035
533.61,0.034
532.84,0.032
532.07,0.032
531.3000000000001,0.031
530.53,0.031
529.76,0.034
528.99,0.038
528.22,0.042
527.45,0.046
526.6800000000001,0.047
525.91,0.049
525.14,0.055
524.37,0.059
523.6,0.059
522.83,0.063
522.0600000000001,0.064
521.29,0.068
520.52,0.076
519.75,0.086
518.98,0.098
518.21,0.106
517.44,0.114
516.67,0.119
515.9,0.117
515.13,0.108
514.36,0.099
513.59,0.094
512.82,0.086
512.0500000000001,0.081
511.28000000000003,0.075
510.51,0.067
509.74,0.062
508.97,0.061
508.2,0.059
507.43,0.057
506.66,0.056
505.89,0.056
505.12,0.054
504.35,0.051
503.58,0.050
502.81,0.050
502.04,0.050
501.27000000000004,0.050
500.5,0.054
499.73,0.058
498.96000000000004,0.063
498.19,0.071
497.42,0.083
496.65000000000003,0.098
495.88,0.126
495.11,0.180
494.34000000000003,0.251
493.57,0.322
492.8,0.383
492.03000000000003,0.423
491.26,0.438
490.49,0.429
489.72,0.384
488.95,0.331
488.18,0.265
487.41,0.194
486.64,0.133
485.87,0.099
485.1,0.090
484.33,0.095
483.56,0.109
482.79,0.127
482.02000000000004,0.140
481.25,0.150
480.48,0.152
479.71000000000004,0.149
478.94,0.139
478.17,0.121
477.40000000000003,0.099
476.63,0.080
475.86,0.069
475.09000000000003,0.063
474.32,0.062
473.55,0.062
472.78000000000003,0.063
472.01,0.064
471.24,0.064
470.47,0.064
469.7,0.065
468.93,0.065
468.16,0.065
467.39,0.066
466.62,0.066
465.85,0.066
465.08,0.068
464.31,0.074
463.54,0.081
462.77000000000004,0.093
462.0,0.113
461.23,0.132
460.46000000000004,0.150
459.69,0.168
458.92,0.180
458.15000000000003,0.176
457.38,0.165
456.61,0.151
455.84000000000003,0.125
455.07,0.104
454.3,0.087
453.53000000000003,0.077
452.76,0.072
451.99,0.070
451.22,0.069
450.45,0.070
449.68,0.071
448.91,0.069
448.14,0.068
447.37,0.070
446.6,0.067
445.83,0.067
445.06,0.066
444.29,0.067
443.52,0.067
442.75,0.069
441.98,0.070
441.21000000000004,0.074
440.44,0.079
439.67,0.087
438.90000000000003,0.098
438.13,0.119
437.36,0.146
436.59000000000003,0.176
435.82,0.206
435.05,0.235
434.28000000000003,0.255
433.51,0.256
432.74,0.243
431.97,0.224
431.2,0.197
430.43,0.172
429.66,0.149
428.89,0.130
428.12,0.116
427.35,0.109
426.58,0.108
425.81,0.108
425.04,0.110
424.27,0.109
423.5,0.107
422.73,0.103
421.96000000000004,0.097
421.19,0.092
420.42,0.084
419.65000000000003,0.078
418.88,0.070
418.11,0.064
417.34000000000003,0.059
416.57,0.056
415.8,0.054
415.03000000000003,0.052
414.26,0.051
413.49,0.050
412.72,0.049
411.95,0.049
411.18,0.050
410.41,0.050
409.64,0.051
408.87,0.051
408.1,0.050
407.33,0.050
406.56,0.051
405.79,0.052
405.02,0.055
404.25,0.059
403.48,0.064
402.71000000000004,0.067
401.94,0.071
401.17,0.073
400.40000000000003,0.075
399.63,0.078
398.86,0.080
398.09000000000003,0.081
397.32,0.081
396.55,0.080
395.78000000000003,0.077
395.01,0.076
394.24,0.074
393.47,0.075
392.7,0.074
391.93,0.074
391.16,0.076
390.39,0.078
389.62,0.083
388.85,0.083
388.08,0.085
387.31,0.084
386.54,0.084
385.77,0.083
385.0,0.081
384.23,0.080
383.46000000000004,0.076
382.69,0.079
381.92,0.081
381.15000000000003,0.089
380.38,0.100
