wavelength,amplitude
747.6700000000001,0.013
746.9,0.012
746.13,0.012
745.36,0.012
744.59,0.012
743.82,0.012
743.0500000000001,0.011
742.28,0.011
741.51,0.012
740.74,0.011
739.97,0.011
739.2,0.012
738.4300000000001,0.012
737.66,0.011
736.89,0.011
736.12,0.011
735.35,0.011
734.58,0.011
733.8100000000001,0.011
733.04,0.011
732.27,0.011
731.5,0.011
730.73,0.011
729.96,0.011
729.19,0.011
728.4200000000001,0.011
727.65,0.011
726.88,0.011
726.11,0.011
725.34,0.011
724.57,0.011
723.8000000000001,0.011
723.03,0.011
722.26,0.011
721.49,0.011
720.72,0.011
719.95,0.011
719.1800000000001,0.011
718.41,0.011
717.64,0.011
716.87,0.011
716.1,0.011
715.33,0.011
714.5600000000001,0.011
713.79,0.010
713.02,0.010
712.25,0.010
711.48,0.010
710.71,0.011
709.94,0.011
709.1700000000001,0.010
708.4,0.010
707.63,0.010
706.86,0.010
706.09,0.010
705.32,0.010
704.5500000000001,0.010
703.78,0.010
703.01,0.010
702.24,0.010
701.47,0.010
700.7,0.010
699.9300000000001,0.011
699.16,0.010
698.39,0.010
697.62,0.010
696.85,0.010
696.08,0.010
695.3100000000001,0.009
694.54,0.009
693.77,0.009
693.0,0.009
692.23,0.009
691.46,0.009
690.69,0.009
689.9200000000001,0.009
689.15,0.008
688.38,0.008
687.61,0.008
686.84,0.008
686.07,0.008
685.3000000000001,0.008
684.53,0.009
683.76,0.010
682.99,0.010
682.22,0.012
681.45,0.012
680.6800000000001,0.014
679.91,0.013
679.14,0.012
678.37,0.010
677.6,0.009
676.83,0.009
676.0600000000001,0.008
675.29,0.008
674.52,0.008
673.75,0.008
672.98,0.008
672.21,0.008
671.44,0.008
670.67,0.008
669.9,0.007
669.13,0.007
668.36,0.007
667.59,0.008
666.82,0.008
666.0500000000001,0.008
665.28,0.008
664.51,0.008
663.74,0.008
662.97,0.008
662.2,0.008
661.4300000000001,0.007
660.66,0.007
659.89,0.007
659.12,0.007
658.35,0.007
657.58,0.007
656.8100000000001,0.007
656.04,0.008
655.27,0.007
654.5,0.008
653.73,0.009
652.96,0.009
652.19,0.009
651.42,0.010
650.65,0.011
649.88,0.013
649.11,0.014
648.34,0.015
647.57,0.017
646.8000000000001,0.021
646.03,0.022
645.26,0.024
644.49,0.027
643.72,0.030
642.95,0.030
642.1800000000001,0.032
641.41,0.033
640.64,0.034
639.87,0.035
639.1,0.033
638.33,0.031
637.5600000000001,0.030
636.79,0.029
636.02,0.028
635.25,0.028
634.48,0.025
633.71,0.024
632.94,0.024
632.17,0.025
631.4,0.024
630.63,0.024
629.86,0.023
629.09,0.025
628.32,0.025
627.5500000000001,0.026
626.78,0.025
626.01,0.025
625.24,0.028
624.47,0.029
623.7,0.034
622.9300000000001,0.040
622.16,0.054
621.39,0.073
620.62,0.086
619.85,0.097
619.08,0.106
618.3100000000001,0.112
617.54,0.113
616.77,0.110
616.0,0.103
615.23,0.093
614.46,0.078
613.69,0.061
612.92,0.047
612.15,0.038
611.38,0.031
610.61,0.030
609.84,0.029
609.07,0.029
608.3000000000001,0.033
607.53,0.036
606.76,0.039
605.99,0.046
605.22,0.055
604.45,0.062
603.6800000000001,0.072
602.91,0.086
602.14,0.099
601.37,0.116
600.6,0.130
599.83,0.143
599.0600000000001,0.151
598.29,0.161
597.52,0.173
596.75,0.180
595.98,0.186
595.21,0.194
594.44,0.200
593.67,0.208
592.9,0.218
592.13,0.246
591.36,0.295
590.59,0.401
589.82,0.551
589.0500000000001,0.708
588.28,0.844
587.51,0.927
586.74,0.966
585.97,0.992
585.2,1.000
584.4300000000001,0.999
583.66,0.983
582.89,0.936
582.12,0.840
581.35,0.686
580.58,0.506
579.8100000000001,0.333
579.04,0.234
578.27,0.184
577.5,0.163
576.73,0.159
575.96,0.162
575.19,0.164
574.42,0.160
573.65,0.153
572.88,0.136
572.11,0.111
571.34,0.085
570.57,0.065
569.8000000000001,0.051
569.03,0.045
568.26,0.041
567.49,0.039
566.72,0.040
565.95,0.040
565.1800000000001,0.039
564.41,0.041
563.64,0.041
562.87,0.043
562.1,0.048
561.33,0.055
560.5600000000001,0.064
559.79,0.080
559.02,0.100
558.25,0.119
557.48,0.139
556.71,0.159
555.94,0.180
555.17,0.191
554.4,0.199
553.63,0.204
552.86,0.204
552.09,0.201
551.32,0.195
550.5500000000001,0.186
549.78,0.176
549.01,0.164
548.24,0.150
547.47,0.134
546.7,0.121
545.9300000000001,0.107
545.16,0.093
544.39,0.081
543.62,0.075
542.85,0.067
542.08,0.062
541.3100000000001,0.059
540.54,0.058
539.77,0.057
539.0,0.057
538.23,0.057
537.46,0.057
536.69,0.057
535.92,0.056
535.15,0.055
534.38,0.054
533.61,0.053
532.84,0.052
532.07,0.051
531.3000000000001,0.051
530.53,0.052
529.76,0.055
528.99,0.058
528.22,0.066
527.45,0.076
526.6800000000001,0.087
525.91,0.094
525.14,0.100
524.37,0.105
523.6,0.108
522.83,0.112
522.0600000000001,0.119
521.29,0.130
520.52,0.144
519.75,0.161
518.98,0.173
518.21,0.180
517.44,0.187
516.67,0.191
515.9,0.191
515.13,0.186
514.36,0.176
513.59,0.160
512.82,0.142
512.0500000000001,0.127
511.28000000000003,0.110
510.51,0.094
509.74,0.085
508.97,0.075
508.2,0.072
507.43,0.069
506.66,0.067
505.89,0.064
505.12,0.064
504.35,0.063
503.58,0.063
502.81,0.062
502.04,0.066
501.27000000000004,0.071
500.5,0.078
499.73,0.089
498.96000000000004,0.104
498.19,0.125
497.42,0.161
496.65000000000003,0.202
495.88,0.255
495.11,0.323
494.34000000000003,0.392
493.57,0.455
492.8,0.500
492.03000000000003,0.522
491.26,0.528
490.49,0.520
489.72,0.490
488.95,0.443
488.18,0.382
487.41,0.309
486.64,0.247
485.87,0.200
485.1,0.190
484.33,0.199
483.56,0.220
482.79,0.238
482.02000000000004,0.249
481.25,0.253
480.48,0.248
479.71000000000004,0.233
478.94,0.205
478.17,0.170
477.40000000000003,0.135
476.63,0.109
475.86,0.093
475.09000000000003,0.085
474.32,0.081
473.55,0.081
472.78000000000003,0.082
472.01,0.085
471.24,0.085
470.47,0.084
469.7,0.083
468.93,0.082
468.16,0.082
467.39,0.083
466.62,0.085
465.85,0.089
465.08,0.098
464.31,0.112
463.54,0.133
462.77000000000004,0.161
462.0,0.186
461.23,0.210
460.46000000000004,0.228
459.69,0.233
458.92,0.228
458.15000000000003,0.217
457.38,0.199
456.61,0.173
455.84000000000003,0.145
455.07,0.117
454.3,0.098
453.53000000000003,0.085
452.76,0.077
451.99,0.073
451.22,0.071
450.45,0.070
449.68,0.069
448.91,0.070
448.14,0.070
447.37,0.071
446.6,0.071
445.83,0.071
445.06,0.071
444.29,0.073
443.52,0.074
442.75,0.078
441.98,0.083
441.21000000000004,0.092
440.44,0.107
439.67,0.126
438.90000000000003,0.148
438.13,0.170
437.36,0.185
436.59000000000003,0.196
435.82,0.202
435.05,0.206
434.28000000000003,0.206
433.51,0.205
432.74,0.199
431.97,0.189
431.2,0.178
430.43,0.165
429.66,0.150
428.89,0.138
428.12,0.130
427.35,0.128
426.58,0.127
425.81,0.127
425.04,0.126
424.27,0.125
423.5,0.121
422.73,0.114
421.96000000000004,0.105
421.19,0.096
420.42,0.088
419.65000000000003,0.080
418.88,0.075
418.11,0.071
417.34000000000003,0.068
416.57,0.067
415.8,0.067
415.03000000000003,0.066
414.26,0.065
413.49,0.065
412.72,0.063
411.95,0.063
411.18,0.063
410.41,0.063
409.64,0.064
408.87,0.065
408.1,0.066
407.33,0.067
406.56,0.070
405.79,0.072
405.02,0.075
404.25,0.078
403.48,0.083
402.71000000000004,0.087
401.94,0.090
401.17,0.092
400.40000000000003,0.095
399.63,0.097
398.86,0.097
398.09000000000003,0.094
397.32,0.092
396.55,0.091
395.78000000000003,0.090
395.01,0.089
394.24,0.091
393.47,0.093
392.7,0.096
391.93,0.097
391.16,0.101
390.39,0.105
389.62,0.108
388.85,0.107
388.08,0.105
387.31,0.107
386.54,0.107
385.77,0.106
385.0,0.109
384.23,0.114
383.46000000000004,0.122
382.69,0.141
381.92,0.161
381.15000000000003,0.186
380.38,0.211
