wavelength,amplitude
999.6,0.006
998.62,0.006
997.64,0.006
996.66,0.006
995.68,0.006
994.6999999999999,0.006
993.72,0.006
992.74,0.006
991.76,0.006
990.78,0.007
989.8,0.006
988.8199999999999,0.006
987.84,0.007
986.86,0.006
985.88,0.006
984.9,0.007
983.92,0.006
982.9399999999999,0.006
981.96,0.007
980.98,0.006
980.0,0.006
979.02,0.006
978.04,0.006
977.06,0.006
976.0799999999999,0.006
975.1,0.006
974.12,0.006
973.14,0.007
972.16,0.007
971.18,0.006
970.1999999999999,0.006
969.22,0.006
968.24,0.006
967.26,0.006
966.28,0.006
965.3,0.006
964.3199999999999,0.006
963.34,0.006
962.36,0.007
961.38,0.006
960.4,0.006
959.42,0.006
958.4399999999999,0.006
957.46,0.007
956.48,0.006
955.5,0.006
954.52,0.007
953.54,0.006
952.56,0.006
951.5799999999999,0.007
950.6,0.007
949.62,0.007
948.64,0.007
947.66,0.006
946.68,0.006
945.6999999999999,0.006
944.72,0.006
943.74,0.006
942.76,0.007
941.78,0.007
940.8,0.007
939.8199999999999,0.006
938.84,0.007
937.86,0.007
936.88,0.007
935.9,0.007
934.92,0.007
933.9399999999999,0.006
932.96,0.006
931.98,0.005
931.0,0.006
930.02,0.006
929.04,0.006
928.06,0.007
927.0799999999999,0.007
926.1,0.006
925.12,0.006
924.14,0.006
923.16,0.007
922.18,0.007
921.1999999999999,0.007
920.22,0.006
919.24,0.007
918.26,0.006
917.28,0.007
916.3,0.007
915.3199999999999,0.006
914.34,0.007
913.36,0.007
912.38,0.007
911.4,0.007
910.42,0.007
909.4399999999999,0.007
908.46,0.007
907.48,0.007
906.5,0.006
905.52,0.007
904.54,0.006
903.56,0.007
902.5799999999999,0.007
901.6,0.006
900.62,0.006
899.64,0.006
898.66,0.006
897.68,0.006
896.6999999999999,0.007
895.72,0.006
894.74,0.007
893.76,0.007
892.78,0.006
891.8,0.006
890.8199999999999,0.006
889.84,0.007
888.86,0.006
887.88,0.006
886.9,0.007
885.92,0.006
884.9399999999999,0.006
883.96,0.007
882.98,0.006
882.0,0.006
881.02,0.007
880.04,0.007
879.06,0.007
878.0799999999999,0.007
877.1,0.005
876.12,0.007
875.14,0.005
874.16,0.006
873.18,0.005
872.1999999999999,0.006
871.22,0.006
870.24,0.007
869.26,0.006
868.28,0.006
867.3,0.005
866.3199999999999,0.006
865.34,0.006
864.36,0.006
863.38,0.006
862.4,0.007
861.42,0.008
860.4399999999999,0.009
859.46,0.009
858.48,0.009
857.5,0.010
856.52,0.009
855.54,0.010
854.56,0.010
853.58,0.010
852.6,0.011
851.62,0.010
850.64,0.010
849.66,0.009
848.68,0.009
847.6999999999999,0.007
846.72,0.007
845.74,0.007
844.76,0.007
843.78,0.007
842.8,0.006
841.8199999999999,0.007
840.84,0.007
839.86,0.006
838.88,0.006
837.9,0.007
836.92,0.006
835.9399999999999,0.007
834.96,0.007
833.98,0.006
833.0,0.007
832.02,0.006
831.04,0.006
830.06,0.007
829.08,0.008
828.1,0.007
827.12,0.007
826.14,0.008
825.16,0.008
824.18,0.008
823.1999999999999,0.008
822.22,0.009
821.24,0.008
820.26,0.009
819.28,0.009
818.3,0.009
817.3199999999999,0.009
816.34,0.008
815.36,0.009
814.38,0.008
813.4,0.009
812.42,0.009
811.4399999999999,0.009
810.46,0.008
809.48,0.008
808.5,0.009
807.52,0.008
806.54,0.008
805.56,0.010
804.58,0.009
803.6,0.008
802.62,0.008
801.64,0.009
800.66,0.008
799.68,0.009
798.6999999999999,0.009
797.72,0.010
796.74,0.009
795.76,0.009
794.78,0.009
793.8,0.009
792.8199999999999,0.009
791.84,0.009
790.86,0.009
789.88,0.009
788.9,0.010
787.92,0.009
786.9399999999999,0.010
785.96,0.010
784.98,0.011
784.0,0.011
783.02,0.010
782.04,0.011
781.06,0.011
780.08,0.012
779.1,0.012
778.12,0.013
777.14,0.013
776.16,0.014
775.18,0.015
774.1999999999999,0.015
773.22,0.017
772.24,0.019
771.26,0.022
770.28,0.026
769.3,0.030
768.3199999999999,0.035
767.34,0.039
766.36,0.045
765.38,0.053
764.4,0.061
763.42,0.068
762.4399999999999,0.070
761.46,0.072
760.48,0.076
759.5,0.085
758.52,0.104
757.54,0.138
756.56,0.185
755.58,0.245
754.6,0.318
753.62,0.405
752.64,0.484
751.66,0.569
750.68,0.648
749.6999999999999,0.749
748.72,0.843
747.74,0.925
746.76,0.977
745.78,1.000
744.8,0.989
743.8199999999999,0.950
742.84,0.896
741.86,0.833
740.88,0.762
739.9,0.686
738.92,0.602
737.9399999999999,0.502
736.96,0.412
735.98,0.324
735.0,0.249
734.02,0.194
733.04,0.153
732.06,0.127
731.08,0.111
730.1,0.100
729.12,0.089
728.14,0.075
727.16,0.060
726.18,0.045
725.1999999999999,0.035
724.22,0.027
723.24,0.024
722.26,0.020
721.28,0.018
720.3,0.016
719.3199999999999,0.016
718.34,0.014
717.36,0.012
716.38,0.012
715.4,0.010
714.42,0.010
713.4399999999999,0.010
712.46,0.009
711.48,0.009
710.5,0.010
709.52,0.009
708.54,0.009
707.56,0.009
706.58,0.009
705.6,0.008
704.62,0.008
703.64,0.008
702.66,0.008
701.68,0.009
700.6999999999999,0.009
699.72,0.009
698.74,0.008
697.76,0.009
696.78,0.008
695.8,0.009
694.8199999999999,0.009
693.84,0.009
692.86,0.009
691.88,0.008
690.9,0.008
689.92,0.008
688.9399999999999,0.008
687.96,0.008
686.98,0.008
686.0,0.009
685.02,0.009
684.04,0.009
683.06,0.008
682.08,0.008
681.1,0.008
680.12,0.008
679.14,0.007
678.16,0.007
677.18,0.007
676.1999999999999,0.008
675.22,0.008
674.24,0.008
673.26,0.008
672.28,0.008
671.3,0.008
670.3199999999999,0.008
669.34,0.008
668.36,0.008
667.38,0.009
666.4,0.009
665.42,0.008
664.4399999999999,0.008
663.46,0.008
662.48,0.009
661.5,0.009
660.52,0.009
659.54,0.009
658.56,0.009
657.58,0.009
656.6,0.009
655.62,0.010
654.64,0.011
653.66,0.011
652.68,0.013
651.6999999999999,0.013
650.72,0.014
649.74,0.013
648.76,0.014
647.78,0.014
646.8,0.015
645.8199999999999,0.017
644.84,0.021
643.86,0.028
642.88,0.041
641.9,0.056
640.92,0.076
639.9399999999999,0.101
638.96,0.129
637.98,0.159
637.0,0.187
636.02,0.213
635.04,0.233
634.06,0.244
633.08,0.242
632.1,0.229
631.12,0.210
630.14,0.187
629.16,0.164
628.18,0.142
627.2,0.123
626.22,0.108
625.24,0.099
624.26,0.095
623.28,0.094
622.3,0.093
621.3199999999999,0.091
620.34,0.086
619.36,0.079
618.38,0.069
617.4,0.059
616.42,0.048
615.4399999999999,0.040
614.46,0.033
613.48,0.028
612.5,0.025
611.52,0.024
610.54,0.022
609.56,0.021
608.58,0.022
607.6,0.023
606.62,0.025
605.64,0.025
604.66,0.027
603.68,0.030
602.7,0.034
601.72,0.040
600.74,0.048
599.76,0.056
598.78,0.062
597.8,0.067
596.8199999999999,0.071
595.84,0.075
594.86,0.075
593.88,0.073
592.9,0.069
591.92,0.063
590.9399999999999,0.057
589.96,0.051
588.98,0.046
588.0,0.041
587.02,0.037
586.04,0.035
585.06,0.034
584.08,0.033
583.1,0.032
582.12,0.032
581.14,0.031
580.16,0.032
579.18,0.032
578.2,0.033
577.22,0.033
576.24,0.036
575.26,0.039
574.28,0.048
573.3,0.059
572.3199999999999,0.073
571.34,0.089
570.36,0.105
569.38,0.121
568.4,0.136
567.42,0.148
566.4399999999999,0.156
565.46,0.157
564.48,0.152
563.5,0.142
562.52,0.129
561.54,0.113
560.56,0.097
559.58,0.080
558.6,0.064
557.62,0.050
556.64,0.040
555.66,0.033
554.68,0.028
553.7,0.025
552.72,0.022
551.74,0.019
550.76,0.017
549.78,0.014
548.8,0.013
547.8199999999999,0.012
546.84,0.011
545.86,0.011
544.88,0.010
543.9,0.010
542.92,0.010
541.9399999999999,0.010
540.96,0.010
539.98,0.011
539.0,0.011
538.02,0.010
537.04,0.010
536.06,0.010
535.08,0.010
534.1,0.010
533.12,0.010
532.14,0.010
531.16,0.010
530.18,0.010
529.2,0.011
528.22,0.011
527.24,0.011
526.26,0.012
525.28,0.012
524.3,0.012
523.3199999999999,0.012
522.34,0.013
521.36,0.013
520.38,0.013
519.4,0.013
518.42,0.013
517.4399999999999,0.014
516.46,0.015
515.48,0.017
514.5,0.020
513.52,0.023
512.54,0.026
511.56,0.028
510.58,0.030
509.59999999999997,0.031
508.62,0.031
507.64,0.029
506.65999999999997,0.029
505.68,0.030
504.7,0.033
503.71999999999997,0.039
502.74,0.048
501.76,0.061
500.78,0.077
499.8,0.095
498.82,0.115
497.84,0.133
496.86,0.150
495.88,0.164
494.9,0.171
493.92,0.172
492.94,0.167
491.96,0.155
490.98,0.137
490.0,0.118
489.02,0.095
488.03999999999996,0.073
487.06,0.051
486.08,0.035
485.09999999999997,0.022
484.12,0.015
483.14,0.011
482.15999999999997,0.008
481.18,0.008
480.2,0.008
479.21999999999997,0.007
478.24,0.007
477.26,0.006
476.28,0.006
475.3,0.005
474.32,0.005
473.34,0.005
472.36,0.005
471.38,0.005
470.4,0.005
469.42,0.005
468.44,0.005
467.46,0.005
466.48,0.005
465.5,0.004
464.52,0.004
463.53999999999996,0.004
462.56,0.004
461.58,0.004
460.59999999999997,0.005
459.62,0.004
458.64,0.004
457.65999999999997,0.004
456.68,0.004
455.7,0.004
454.71999999999997,0.005
453.74,0.004
452.76,0.004
451.78,0.004
450.8,0.004
449.82,0.004
448.84,0.004
447.86,0.004
446.88,0.004
445.9,0.004
444.92,0.004
443.94,0.004
442.96,0.004
441.98,0.004
441.0,0.004
440.02,0.004
439.03999999999996,0.004
438.06,0.004
437.08,0.004
436.09999999999997,0.004
435.12,0.004
434.14,0.004
433.15999999999997,0.004
432.18,0.004
431.2,0.004
430.21999999999997,0.004
429.24,0.004
428.26,0.004
427.28,0.004
426.3,0.004
425.32,0.004
424.34,0.004
423.36,0.004
422.38,0.004
421.4,0.004
420.42,0.004
419.44,0.004
418.46,0.004
417.48,0.004
416.5,0.004
415.52,0.004
414.54,0.004
413.56,0.005
412.58,0.004
411.59999999999997,0.004
410.62,0.004
409.64,0.004
408.65999999999997,0.004
407.68,0.004
406.7,0.004
405.71999999999997,0.004
404.74,0.003
403.76,0.004
402.78,0.004
401.8,0.004
400.82,0.004
399.84,0.004
398.86,0.004
397.88,0.004
396.9,0.004
395.92,0.004
394.94,0.004
393.96,0.004
392.98,0.004
392.0,0.004
391.02,0.004
390.04,0.004
389.06,0.004
388.08,0.004
387.09999999999997,0.004
386.12,0.004
385.14,0.004
384.15999999999997,0.004
383.18,0.004
382.2,0.004
381.21999999999997,0.004
380.24,0.004
