wavelength,amplitude
874.35,0.010
873.45,0.010
872.5500000000001,0.010
871.65,0.009
870.75,0.009
869.85,0.010
868.95,0.009
868.0500000000001,0.009
867.15,0.009
866.25,0.010
865.35,0.009
864.45,0.010
863.5500000000001,0.010
862.65,0.009
861.75,0.009
860.85,0.009
859.95,0.009
859.0500000000001,0.009
858.15,0.010
857.25,0.010
856.35,0.010
855.45,0.010
854.5500000000001,0.009
853.65,0.010
852.75,0.010
851.85,0.010
850.95,0.010
850.0500000000001,0.010
849.15,0.010
848.25,0.009
847.35,0.009
846.45,0.010
845.5500000000001,0.009
844.65,0.009
843.75,0.009
842.85,0.010
841.95,0.010
841.0500000000001,0.010
840.15,0.010
839.25,0.010
838.35,0.010
837.45,0.010
836.5500000000001,0.010
835.65,0.010
834.75,0.010
833.85,0.010
832.95,0.009
832.0500000000001,0.009
831.15,0.009
830.25,0.010
829.35,0.010
828.45,0.010
827.5500000000001,0.010
826.65,0.009
825.75,0.010
824.85,0.010
823.95,0.010
823.0500000000001,0.010
822.15,0.010
821.25,0.010
820.35,0.010
819.45,0.010
818.5500000000001,0.010
817.65,0.010
816.75,0.010
815.85,0.009
814.95,0.009
814.0500000000001,0.009
813.15,0.008
812.25,0.008
811.35,0.009
810.45,0.009
809.5500000000001,0.008
808.65,0.008
807.75,0.008
806.85,0.008
805.95,0.008
805.0500000000001,0.007
804.15,0.008
803.25,0.008
802.35,0.009
801.45,0.009
800.5500000000001,0.009
799.65,0.010
798.75,0.011
797.85,0.014
796.95,0.011
796.0500000000001,0.014
795.15,0.013
794.25,0.014
793.35,0.012
792.45,0.011
791.5500000000001,0.010
790.65,0.008
789.75,0.008
788.85,0.008
787.95,0.007
787.0500000000001,0.007
786.15,0.008
785.25,0.008
784.35,0.007
783.45,0.007
782.5500000000001,0.007
781.65,0.007
780.75,0.007
779.85,0.007
778.95,0.007
778.0500000000001,0.007
777.15,0.006
776.25,0.006
775.35,0.007
774.45,0.007
773.5500000000001,0.007
772.65,0.007
771.75,0.007
770.85,0.007
769.95,0.006
769.0500000000001,0.007
768.15,0.008
767.25,0.008
766.35,0.008
765.45,0.008
764.5500000000001,0.009
763.65,0.008
762.75,0.009
761.85,0.009
760.95,0.010
760.0500000000001,0.010
759.15,0.014
758.25,0.015
757.35,0.016
756.45,0.018
755.5500000000001,0.019
754.65,0.021
753.75,0.024
752.85,0.026
751.95,0.029
751.0500000000001,0.030
750.15,0.030
749.25,0.029
748.35,0.029
747.45,0.027
746.5500000000001,0.027
745.65,0.028
744.75,0.027
743.85,0.025
742.95,0.025
742.0500000000001,0.023
741.15,0.021
740.25,0.020
739.35,0.021
738.45,0.022
737.5500000000001,0.022
736.65,0.021
735.75,0.022
734.85,0.021
733.95,0.020
733.0500000000001,0.021
732.15,0.020
731.25,0.022
730.35,0.025
729.45,0.030
728.5500000000001,0.039
727.65,0.049
726.75,0.063
725.85,0.077
724.95,0.089
724.0500000000001,0.099
723.15,0.105
722.25,0.106
721.35,0.102
720.45,0.098
719.5500000000001,0.087
718.65,0.073
717.75,0.063
716.85,0.047
715.95,0.036
715.0500000000001,0.029
714.15,0.028
713.25,0.026
712.35,0.026
711.45,0.029
710.5500000000001,0.032
709.65,0.036
708.75,0.041
707.85,0.047
706.95,0.057
706.0500000000001,0.066
705.15,0.078
704.25,0.090
703.35,0.108
702.45,0.123
701.5500000000001,0.135
700.65,0.144
699.75,0.155
698.85,0.167
697.95,0.178
697.0500000000001,0.185
696.15,0.191
695.25,0.202
694.35,0.215
693.45,0.232
692.5500000000001,0.270
691.65,0.331
690.75,0.430
689.85,0.550
688.95,0.684
688.0500000000001,0.807
687.15,0.903
686.25,0.964
685.35,0.992
684.45,1.000
683.5500000000001,0.993
682.65,0.972
681.75,0.921
680.85,0.832
679.95,0.699
679.0500000000001,0.563
678.15,0.415
677.25,0.282
676.35,0.204
675.45,0.173
674.5500000000001,0.160
673.65,0.159
672.75,0.156
671.85,0.151
670.95,0.134
670.0500000000001,0.112
669.15,0.096
668.25,0.082
667.35,0.066
666.45,0.050
665.5500000000001,0.040
664.65,0.035
663.75,0.032
662.85,0.031
661.95,0.033
661.0500000000001,0.033
660.15,0.035
659.25,0.035
658.35,0.038
657.45,0.042
656.5500000000001,0.049
655.65,0.059
654.75,0.070
653.85,0.086
652.95,0.108
652.0500000000001,0.128
651.15,0.147
650.25,0.166
649.35,0.180
648.45,0.189
647.5500000000001,0.194
646.65,0.193
645.75,0.192
644.85,0.187
643.95,0.180
643.0500000000001,0.171
642.15,0.158
641.25,0.145
640.35,0.132
639.45,0.118
638.5500000000001,0.105
637.65,0.093
636.75,0.081
635.85,0.072
634.95,0.065
634.0500000000001,0.061
633.15,0.057
632.25,0.055
631.35,0.055
630.45,0.055
629.5500000000001,0.054
628.65,0.053
627.75,0.053
626.85,0.053
625.95,0.052
625.0500000000001,0.050
624.15,0.048
623.25,0.049
622.35,0.048
621.45,0.049
620.5500000000001,0.051
619.65,0.054
618.75,0.058
617.85,0.063
616.95,0.070
616.0500000000001,0.076
615.15,0.083
614.25,0.090
613.35,0.098
612.45,0.105
611.5500000000001,0.111
610.65,0.119
609.75,0.129
608.85,0.142
607.95,0.159
607.0500000000001,0.174
606.15,0.185
605.25,0.189
604.35,0.192
603.45,0.193
602.5500000000001,0.187
601.65,0.177
600.75,0.166
599.85,0.151
598.95,0.135
598.0500000000001,0.122
597.15,0.105
596.25,0.093
595.35,0.084
594.45,0.077
593.5500000000001,0.071
592.65,0.067
591.75,0.066
590.85,0.066
589.95,0.065
589.0500000000001,0.067
588.15,0.067
587.25,0.070
586.35,0.073
585.45,0.082
584.5500000000001,0.093
583.65,0.110
582.75,0.132
581.85,0.165
580.95,0.205
580.0500000000001,0.254
579.15,0.323
578.25,0.386
577.35,0.440
576.45,0.486
575.5500000000001,0.519
574.65,0.534
573.75,0.533
572.85,0.514
571.95,0.480
571.0500000000001,0.431
570.15,0.367
569.25,0.308
568.35,0.257
567.45,0.229
566.5500000000001,0.217
565.65,0.225
564.75,0.237
563.85,0.247
562.95,0.250
562.0500000000001,0.244
561.15,0.229
560.25,0.208
559.35,0.179
558.45,0.149
557.5500000000001,0.124
556.65,0.105
555.75,0.092
554.85,0.086
553.95,0.084
553.0500000000001,0.083
552.15,0.083
551.25,0.083
550.35,0.083
549.45,0.083
548.5500000000001,0.083
547.65,0.084
546.75,0.084
545.85,0.085
544.95,0.090
544.0500000000001,0.099
543.15,0.109
542.25,0.125
541.35,0.145
540.45,0.165
539.5500000000001,0.182
538.65,0.194
537.75,0.204
536.85,0.206
535.95,0.200
535.0500000000001,0.186
534.15,0.167
533.25,0.147
532.35,0.123
531.45,0.104
530.5500000000001,0.089
529.65,0.080
528.75,0.074
527.85,0.072
526.95,0.072
526.0500000000001,0.070
525.15,0.071
524.25,0.071
523.35,0.071
522.45,0.071
521.5500000000001,0.072
520.65,0.073
519.75,0.075
518.85,0.078
517.95,0.081
517.0500000000001,0.087
516.15,0.096
515.25,0.109
514.35,0.126
513.45,0.143
512.5500000000001,0.159
511.65000000000003,0.171
510.75,0.180
509.85,0.185
508.95,0.187
508.05,0.186
507.15000000000003,0.185
506.25,0.182
505.35,0.177
504.45,0.171
503.55,0.163
502.65000000000003,0.155
501.75,0.146
500.85,0.140
499.95,0.135
499.05,0.133
498.15000000000003,0.132
497.25,0.131
496.35,0.129
495.45,0.125
494.55,0.119
493.65000000000003,0.112
492.75,0.103
491.85,0.095
490.95,0.087
490.05,0.081
489.15000000000003,0.076
488.25,0.073
487.35,0.071
486.45,0.069
485.55,0.068
484.65000000000003,0.067
483.75,0.067
482.85,0.066
481.95,0.065
481.05,0.066
480.15000000000003,0.066
479.25,0.067
478.35,0.067
477.45,0.069
476.55,0.071
475.65000000000003,0.073
474.75,0.076
473.85,0.079
472.95,0.082
472.05,0.085
471.15000000000003,0.089
470.25,0.092
469.35,0.095
468.45,0.097
467.55,0.097
466.65000000000003,0.097
465.75,0.095
464.85,0.094
463.95,0.093
463.05,0.092
462.15000000000003,0.091
461.25,0.091
460.35,0.092
459.45,0.093
458.55,0.096
457.65000000000003,0.097
456.75,0.100
455.85,0.100
454.95,0.101
454.05,0.100
453.15000000000003,0.101
452.25,0.099
451.35,0.100
450.45,0.102
449.55,0.108
448.65000000000003,0.116
447.75,0.130
446.85,0.148
445.95,0.170
445.05,0.192
444.15000000000003,0.212
443.25,0.227
442.35,0.239
441.45,0.247
440.55,0.251
439.65000000000003,0.249
438.75,0.238
437.85,0.224
436.95,0.205
436.05,0.177
435.15000000000003,0.147
434.25,0.117
433.35,0.090
432.45,0.065
431.55,0.047
430.65000000000003,0.032
429.75,0.024
428.85,0.019
427.95,0.017
427.05,0.014
426.15000000000003,0.011
425.25,0.010
424.35,0.009
423.45,0.009
422.55,0.008
421.65000000000003,0.008
420.75,0.008
419.85,0.008
418.95,0.007
418.05,0.007
417.15000000000003,0.007
416.25,0.007
415.35,0.007
414.45,0.007
413.55,0.007
412.65000000000003,0.007
411.75,0.007
410.85,0.007
409.95,0.007
409.05,0.007
408.15000000000003,0.007
407.25,0.006
406.35,0.006
405.45,0.006
404.55,0.007
403.65000000000003,0.006
402.75,0.007
401.85,0.006
400.95,0.006
400.05,0.006
399.15000000000003,0.006
398.25,0.006
397.35,0.006
396.45,0.006
395.55,0.007
394.65000000000003,0.006
393.75,0.006
392.85,0.006
391.95,0.006
391.05,0.006
390.15000000000003,0.006
389.25,0.006
388.35,0.006
387.45,0.006
386.55,0.006
385.65000000000003,0.006
384.75,0.006
383.85,0.006
382.95,0.006
382.05,0.007
381.15000000000003,0.006
380.25,0.006
