wavelength,amplitude
999.6,0.045
998.62,0.047
997.64,0.046
996.66,0.049
995.68,0.048
994.6999999999999,0.047
993.72,0.045
992.74,0.045
991.76,0.047
990.78,0.046
989.8,0.045
988.8199999999999,0.045
987.84,0.046
986.86,0.048
985.88,0.047
984.9,0.048
983.92,0.049
982.9399999999999,0.045
981.96,0.048
980.98,0.050
980.0,0.047
979.02,0.046
978.04,0.048
977.06,0.045
976.0799999999999,0.050
975.1,0.047
974.12,0.045
973.14,0.052
972.16,0.045
971.18,0.046
970.1999999999999,0.044
969.22,0.045
968.24,0.046
967.26,0.045
966.28,0.046
965.3,0.048
964.3199999999999,0.045
963.34,0.044
962.36,0.045
961.38,0.044
960.4,0.045
959.42,0.047
958.4399999999999,0.046
957.46,0.045
956.48,0.044
955.5,0.045
954.52,0.045
953.54,0.047
952.56,0.047
951.5799999999999,0.045
950.6,0.046
949.62,0.045
948.64,0.046
947.66,0.045
946.68,0.046
945.6999999999999,0.051
944.72,0.047
943.74,0.045
942.76,0.045
941.78,0.045
940.8,0.045
939.8199999999999,0.046
938.84,0.045
937.86,0.045
936.88,0.046
935.9,0.045
934.92,0.045
933.9399999999999,0.045
932.96,0.045
931.98,0.045
931.0,0.045
930.02,0.047
929.04,0.047
928.06,0.045
927.0799999999999,0.046
926.1,0.045
925.12,0.045
924.14,0.046
923.16,0.046
922.18,0.046
921.1999999999999,0.046
920.22,0.047
919.24,0.048
918.26,0.047
917.28,0.046
916.3,0.047
915.3199999999999,0.046
914.34,0.047
913.36,0.045
912.38,0.045
911.4,0.045
910.42,0.045
909.4399999999999,0.047
908.46,0.045
907.48,0.044
906.5,0.045
905.52,0.045
904.54,0.047
903.56,0.053
902.5799999999999,0.057
901.6,0.048
900.62,0.051
899.64,0.045
898.66,0.045
897.68,0.046
896.6999999999999,0.045
895.72,0.044
894.74,0.045
893.76,0.046
892.78,0.046
891.8,0.044
890.8199999999999,0.045
889.84,0.047
888.86,0.046
887.88,0.048
886.9,0.045
885.92,0.045
884.9399999999999,0.044
883.96,0.045
882.98,0.045
882.0,0.047
881.02,0.046
880.04,0.044
879.06,0.046
878.0799999999999,0.046
877.1,0.047
876.12,0.046
875.14,0.048
874.16,0.046
873.18,0.045
872.1999999999999,0.046
871.22,0.045
870.24,0.047
869.26,0.048
868.28,0.046
867.3,0.046
866.3199999999999,0.046
865.34,0.045
864.36,0.045
863.38,0.046
862.4,0.047
861.42,0.045
860.4399999999999,0.046
859.46,0.046
858.48,0.047
857.5,0.045
856.52,0.045
855.54,0.045
854.56,0.045
853.58,0.046
852.6,0.047
851.62,0.047
850.64,0.045
849.66,0.045
848.68,0.046
847.6999999999999,0.045
846.72,0.045
845.74,0.046
844.76,0.047
843.78,0.048
842.8,0.047
841.8199999999999,0.049
840.84,0.050
839.86,0.046
838.88,0.047
837.9,0.046
836.92,0.043
835.9399999999999,0.042
834.96,0.046
833.98,0.043
833.0,0.040
832.02,0.035
831.04,0.035
830.06,0.035
829.08,0.035
828.1,0.027
827.12,0.028
826.14,0.032
825.16,0.031
824.18,0.031
823.1999999999999,0.031
822.22,0.037
821.24,0.034
820.26,0.039
819.28,0.045
818.3,0.052
817.3199999999999,0.062
816.34,0.061
815.36,0.073
814.38,0.079
813.4,0.095
812.42,0.097
811.4399999999999,0.113
810.46,0.117
809.48,0.122
808.5,0.150
807.52,0.161
806.54,0.170
805.56,0.188
804.58,0.191
803.6,0.205
802.62,0.218
801.64,0.270
800.66,0.260
799.68,0.296
798.6999999999999,0.334
797.72,0.367
796.74,0.382
795.76,0.421
794.78,0.468
793.8,0.517
792.8199999999999,0.568
791.84,0.614
790.86,0.661
789.88,0.710
788.9,0.766
787.92,0.802
786.9399999999999,0.834
785.96,0.872
784.98,0.906
784.0,0.932
783.02,0.964
782.04,0.975
781.06,0.985
780.08,1.000
779.1,0.988
778.12,0.970
777.14,0.962
776.16,0.943
775.18,0.922
774.1999999999999,0.892
773.22,0.856
772.24,0.818
771.26,0.772
770.28,0.728
769.3,0.678
768.3199999999999,0.624
767.34,0.565
766.36,0.526
765.38,0.494
764.4,0.461
763.42,0.420
762.4399999999999,0.370
761.46,0.345
760.48,0.334
759.5,0.325
758.52,0.330
757.54,0.340
756.56,0.350
755.58,0.355
754.6,0.349
753.62,0.345
752.64,0.342
751.66,0.350
750.68,0.350
749.6999999999999,0.347
748.72,0.355
747.74,0.340
746.76,0.342
745.78,0.340
744.8,0.338
743.8199999999999,0.338
742.84,0.330
741.86,0.315
740.88,0.317
739.9,0.288
738.92,0.284
737.9399999999999,0.261
736.96,0.259
735.98,0.229
735.0,0.223
734.02,0.207
733.04,0.191
732.06,0.173
731.08,0.162
730.1,0.141
729.12,0.132
728.14,0.119
727.16,0.115
726.18,0.101
725.1999999999999,0.097
724.22,0.087
723.24,0.092
722.26,0.079
721.28,0.075
720.3,0.073
719.3199999999999,0.073
718.34,0.075
717.36,0.073
716.38,0.075
715.4,0.077
714.42,0.086
713.4399999999999,0.092
712.46,0.102
711.48,0.117
710.5,0.147
709.52,0.173
708.54,0.200
707.56,0.242
706.58,0.270
705.6,0.306
704.62,0.353
703.64,0.405
702.66,0.460
701.68,0.519
700.6999999999999,0.574
699.72,0.626
698.74,0.678
697.76,0.727
696.78,0.776
695.8,0.817
694.8199999999999,0.856
693.84,0.879
692.86,0.901
691.88,0.913
690.9,0.911
689.92,0.915
688.9399999999999,0.915
687.96,0.900
686.98,0.884
686.0,0.866
685.02,0.825
684.04,0.780
683.06,0.733
682.08,0.687
681.1,0.628
680.12,0.574
679.14,0.509
678.16,0.452
677.18,0.390
676.1999999999999,0.343
675.22,0.284
674.24,0.233
673.26,0.191
672.28,0.153
671.3,0.120
670.3199999999999,0.096
669.34,0.078
668.36,0.069
667.38,0.060
666.4,0.058
665.42,0.050
664.4399999999999,0.048
663.46,0.044
662.48,0.050
661.5,0.050
660.52,0.044
659.54,0.043
658.56,0.044
657.58,0.041
656.6,0.039
655.62,0.038
654.64,0.043
653.66,0.042
652.68,0.044
651.6999999999999,0.045
650.72,0.043
649.74,0.039
648.76,0.035
647.78,0.037
646.8,0.036
645.8199999999999,0.037
644.84,0.040
643.86,0.040
642.88,0.044
641.9,0.042
640.92,0.044
639.9399999999999,0.045
638.96,0.048
637.98,0.050
637.0,0.053
636.02,0.053
635.04,0.057
634.06,0.062
633.08,0.063
632.1,0.066
631.12,0.071
630.14,0.073
629.16,0.076
628.18,0.084
627.2,0.084
626.22,0.087
625.24,0.091
624.26,0.088
623.28,0.088
622.3,0.094
621.3199999999999,0.098
620.34,0.096
619.36,0.097
618.38,0.102
617.4,0.104
616.42,0.101
615.4399999999999,0.095
614.46,0.095
613.48,0.092
612.5,0.091
611.52,0.095
610.54,0.091
609.56,0.085
608.58,0.079
607.6,0.075
606.62,0.076
605.64,0.072
604.66,0.067
603.68,0.068
602.7,0.066
601.72,0.065
600.74,0.062
599.76,0.059
598.78,0.062
597.8,0.062
596.8199999999999,0.056
595.84,0.056
594.86,0.048
593.88,0.050
592.9,0.051
591.92,0.049
590.9399999999999,0.048
589.96,0.052
588.98,0.051
588.0,0.050
587.02,0.047
586.04,0.049
585.06,0.049
584.08,0.052
583.1,0.045
582.12,0.040
581.14,0.043
580.16,0.046
579.18,0.044
578.2,0.044
577.22,0.041
576.24,0.043
575.26,0.038
574.28,0.044
573.3,0.045
572.3199999999999,0.046
571.34,0.048
570.36,0.047
569.38,0.048
568.4,0.049
567.42,0.052
566.4399999999999,0.051
565.46,0.050
564.48,0.052
563.5,0.052
562.52,0.059
561.54,0.054
560.56,0.059
559.58,0.053
558.6,0.054
557.62,0.056
556.64,0.055
555.66,0.048
554.68,0.054
553.7,0.055
552.72,0.058
551.74,0.052
550.76,0.054
549.78,0.050
548.8,0.048
547.8199999999999,0.045
546.84,0.046
545.86,0.047
544.88,0.046
543.9,0.042
542.92,0.041
541.9399999999999,0.041
540.96,0.040
539.98,0.036
539.0,0.033
538.02,0.033
537.04,0.032
536.06,0.032
535.08,0.028
534.1,0.029
533.12,0.030
532.14,0.030
531.16,0.032
530.18,0.028
529.2,0.028
528.22,0.028
527.24,0.029
526.26,0.027
525.28,0.027
524.3,0.026
523.3199999999999,0.026
522.34,0.028
521.36,0.028
520.38,0.028
519.4,0.027
518.42,0.026
517.4399999999999,0.028
516.46,0.025
515.48,0.025
514.5,0.027
513.52,0.027
512.54,0.025
511.56,0.025
510.58,0.026
509.59999999999997,0.024
508.62,0.024
507.64,0.025
506.65999999999997,0.026
505.68,0.026
504.7,0.025
503.71999999999997,0.025
502.74,0.023
501.76,0.024
500.78,0.025
499.8,0.024
498.82,0.024
497.84,0.024
496.86,0.023
495.88,0.024
494.9,0.025
493.92,0.025
492.94,0.025
491.96,0.025
490.98,0.024
490.0,0.025
489.02,0.025
488.03999999999996,0.027
487.06,0.022
486.08,0.023
485.09999999999997,0.022
484.12,0.023
483.14,0.024
482.15999999999997,0.025
481.18,0.024
480.2,0.025
479.21999999999997,0.022
478.24,0.023
477.26,0.024
476.28,0.023
475.3,0.023
474.32,0.025
473.34,0.024
472.36,0.024
471.38,0.021
470.4,0.022
469.42,0.022
468.44,0.021
467.46,0.020
466.48,0.022
465.5,0.022
464.52,0.022
463.53999999999996,0.022
462.56,0.023
461.58,0.022
460.59999999999997,0.024
459.62,0.021
458.64,0.023
457.65999999999997,0.024
456.68,0.023
455.7,0.022
454.71999999999997,0.022
453.74,0.022
452.76,0.022
451.78,0.022
450.8,0.021
449.82,0.023
448.84,0.024
447.86,0.022
446.88,0.023
445.9,0.022
444.92,0.021
443.94,0.022
442.96,0.021
441.98,0.021
441.0,0.020
440.02,0.020
439.03999999999996,0.020
438.06,0.020
437.08,0.020
436.09999999999997,0.021
435.12,0.023
434.14,0.022
433.15999999999997,0.021
432.18,0.022
431.2,0.022
430.21999999999997,0.022
429.24,0.022
428.26,0.023
427.28,0.023
426.3,0.022
425.32,0.022
424.34,0.021
423.36,0.021
422.38,0.021
421.4,0.020
420.42,0.021
419.44,0.022
418.46,0.020
417.48,0.024
416.5,0.024
415.52,0.022
414.54,0.023
413.56,0.025
412.58,0.022
411.59999999999997,0.022
410.62,0.021
409.64,0.021
408.65999999999997,0.021
407.68,0.021
406.7,0.020
405.71999999999997,0.020
404.74,0.019
403.76,0.019
402.78,0.020
401.8,0.021
400.82,0.019
399.84,0.021
398.86,0.021
397.88,0.021
396.9,0.018
395.92,0.022
394.94,0.021
393.96,0.021
392.98,0.022
392.0,0.020
391.02,0.019
390.04,0.021
389.06,0.019
388.08,0.019
387.09999999999997,0.021
386.12,0.022
385.14,0.020
384.15999999999997,0.022
383.18,0.020
382.2,0.020
381.21999999999997,0.019
380.24,0.021
