wavelength,amplitude
999.9,0.006
998.91,0.006
997.92,0.005
996.93,0.006
995.9399999999999,0.006
994.95,0.007
993.96,0.006
992.97,0.007
991.98,0.005
990.99,0.006
990.0,0.006
989.01,0.006
988.02,0.006
987.03,0.006
986.04,0.006
985.05,0.006
984.06,0.006
983.0699999999999,0.006
982.08,0.006
981.09,0.006
980.1,0.006
979.11,0.006
978.12,0.007
977.13,0.006
976.14,0.006
975.15,0.006
974.16,0.006
973.17,0.006
972.18,0.006
971.1899999999999,0.006
970.2,0.006
969.21,0.006
968.22,0.006
967.23,0.006
966.24,0.007
965.25,0.007
964.26,0.006
963.27,0.007
962.28,0.006
961.29,0.007
960.3,0.007
959.31,0.006
958.3199999999999,0.006
957.33,0.007
956.34,0.007
955.35,0.006
954.36,0.006
953.37,0.007
952.38,0.007
951.39,0.007
950.4,0.007
949.41,0.007
948.42,0.007
947.43,0.007
946.4399999999999,0.007
945.45,0.007
944.46,0.007
943.47,0.006
942.48,0.006
941.49,0.006
940.5,0.006
939.51,0.006
938.52,0.006
937.53,0.006
936.54,0.006
935.55,0.007
934.56,0.007
933.5699999999999,0.007
932.58,0.007
931.59,0.006
930.6,0.007
929.61,0.007
928.62,0.007
927.63,0.007
926.64,0.006
925.65,0.007
924.66,0.007
923.67,0.007
922.68,0.007
921.6899999999999,0.007
920.7,0.007
919.71,0.008
918.72,0.007
917.73,0.007
916.74,0.006
915.75,0.007
914.76,0.007
913.77,0.006
912.78,0.007
911.79,0.007
910.8,0.007
909.81,0.007
908.8199999999999,0.006
907.83,0.006
906.84,0.006
905.85,0.006
904.86,0.006
903.87,0.007
902.88,0.006
901.89,0.007
900.9,0.006
899.91,0.007
898.92,0.007
897.93,0.008
896.9399999999999,0.007
895.95,0.007
894.96,0.006
893.97,0.007
892.98,0.007
891.99,0.006
891.0,0.007
890.01,0.007
889.02,0.007
888.03,0.007
887.04,0.006
886.05,0.006
885.06,0.006
884.0699999999999,0.006
883.08,0.007
882.09,0.006
881.1,0.006
880.11,0.006
879.12,0.006
878.13,0.005
877.14,0.006
876.15,0.007
875.16,0.007
874.17,0.007
873.18,0.007
872.1899999999999,0.008
871.2,0.008
870.21,0.009
869.22,0.009
868.23,0.010
867.24,0.010
866.25,0.009
865.26,0.010
864.27,0.010
863.28,0.010
862.29,0.010
861.3,0.009
860.31,0.008
859.3199999999999,0.009
858.33,0.008
857.34,0.007
856.35,0.007
855.36,0.007
854.37,0.007
853.38,0.007
852.39,0.007
851.4,0.007
850.41,0.007
849.42,0.007
848.43,0.007
847.4399999999999,0.006
846.45,0.007
845.46,0.007
844.47,0.007
843.48,0.007
842.49,0.007
841.5,0.008
840.51,0.008
839.52,0.008
838.53,0.009
837.54,0.008
836.55,0.008
835.56,0.008
834.5699999999999,0.008
833.58,0.008
832.59,0.008
831.6,0.009
830.61,0.009
829.62,0.009
828.63,0.009
827.64,0.009
826.65,0.010
825.66,0.009
824.67,0.009
823.68,0.008
822.6899999999999,0.009
821.7,0.008
820.71,0.009
819.72,0.009
818.73,0.008
817.74,0.008
816.75,0.008
815.76,0.008
814.77,0.010
813.78,0.009
812.79,0.008
811.8,0.009
810.81,0.009
809.8199999999999,0.009
808.83,0.009
807.84,0.009
806.85,0.009
805.86,0.008
804.87,0.009
803.88,0.009
802.89,0.009
801.9,0.009
800.91,0.011
799.92,0.010
798.93,0.010
797.9399999999999,0.010
796.95,0.010
795.96,0.011
794.97,0.011
793.98,0.010
792.99,0.010
792.0,0.012
791.01,0.012
790.02,0.012
789.03,0.012
788.04,0.013
787.05,0.014
786.06,0.015
785.0699999999999,0.016
784.08,0.016
783.09,0.017
782.1,0.019
781.11,0.021
780.12,0.023
779.13,0.027
778.14,0.032
777.15,0.037
776.16,0.040
775.17,0.046
774.18,0.055
773.1899999999999,0.063
772.2,0.068
771.21,0.070
770.22,0.070
769.23,0.072
768.24,0.080
767.25,0.099
766.26,0.130
765.27,0.173
764.28,0.230
763.29,0.299
762.3,0.376
761.31,0.453
760.3199999999999,0.530
759.33,0.610
758.34,0.710
757.35,0.811
756.36,0.907
755.37,0.970
754.38,1.000
753.39,0.990
752.4,0.951
751.41,0.890
750.42,0.819
749.43,0.740
748.4399999999999,0.657
747.45,0.575
746.46,0.486
745.47,0.406
744.48,0.316
743.49,0.240
742.5,0.180
741.51,0.142
740.52,0.121
739.53,0.109
738.54,0.100
737.55,0.094
736.56,0.079
735.57,0.062
734.58,0.048
733.59,0.035
732.6,0.029
731.61,0.025
730.62,0.021
729.63,0.020
728.64,0.017
727.65,0.016
726.66,0.015
725.67,0.013
724.68,0.013
723.6899999999999,0.011
722.7,0.011
721.71,0.011
720.72,0.012
719.73,0.011
718.74,0.010
717.75,0.010
716.76,0.010
715.77,0.010
714.78,0.010
713.79,0.010
712.8,0.009
711.81,0.009
710.82,0.009
709.83,0.010
708.84,0.010
707.85,0.010
706.86,0.010
705.87,0.010
704.88,0.010
703.89,0.010
702.9,0.010
701.91,0.010
700.92,0.010
699.93,0.009
698.9399999999999,0.009
697.95,0.008
696.96,0.008
695.97,0.008
694.98,0.009
693.99,0.009
693.0,0.009
692.01,0.009
691.02,0.008
690.03,0.008
689.04,0.008
688.05,0.008
687.06,0.008
686.07,0.008
685.08,0.008
684.09,0.007
683.1,0.008
682.11,0.009
681.12,0.008
680.13,0.008
679.14,0.008
678.15,0.008
677.16,0.007
676.17,0.008
675.18,0.009
674.1899999999999,0.009
673.2,0.008
672.21,0.008
671.22,0.007
670.23,0.009
669.24,0.009
668.25,0.009
667.26,0.010
666.27,0.009
665.28,0.010
664.29,0.010
663.3,0.012
662.31,0.012
661.32,0.013
660.33,0.014
659.34,0.013
658.35,0.014
657.36,0.013
656.37,0.014
655.38,0.014
654.39,0.015
653.4,0.017
652.41,0.020
651.42,0.028
650.43,0.039
649.4399999999999,0.054
648.45,0.072
647.46,0.095
646.47,0.121
645.48,0.148
644.49,0.176
643.5,0.201
642.51,0.221
641.52,0.231
640.53,0.231
639.54,0.217
638.55,0.199
637.56,0.179
636.57,0.159
635.58,0.140
634.59,0.122
633.6,0.106
632.61,0.097
631.62,0.092
630.63,0.090
629.64,0.089
628.65,0.088
627.66,0.084
626.67,0.077
625.68,0.069
624.6899999999999,0.060
623.7,0.050
622.71,0.041
621.72,0.033
620.73,0.028
619.74,0.025
618.75,0.023
617.76,0.022
616.77,0.022
615.78,0.022
614.79,0.022
613.8,0.023
612.81,0.024
611.82,0.027
610.83,0.029
609.84,0.032
608.85,0.037
607.86,0.043
606.87,0.050
605.88,0.058
604.89,0.064
603.9,0.069
602.91,0.071
601.92,0.071
600.93,0.070
599.9399999999999,0.066
598.95,0.061
597.96,0.054
596.97,0.048
595.98,0.042
594.99,0.039
594.0,0.036
593.01,0.033
592.02,0.033
591.03,0.032
590.04,0.031
589.05,0.030
588.06,0.030
587.07,0.029
586.08,0.029
585.09,0.029
584.1,0.030
583.11,0.032
582.12,0.036
581.13,0.044
580.14,0.053
579.15,0.065
578.16,0.079
577.17,0.094
576.18,0.112
575.1899999999999,0.128
574.2,0.143
573.21,0.153
572.22,0.158
571.23,0.156
570.24,0.146
569.25,0.133
568.26,0.115
567.27,0.099
566.28,0.082
565.29,0.066
564.3,0.052
563.31,0.041
562.32,0.033
561.33,0.028
560.34,0.025
559.35,0.023
558.36,0.020
557.37,0.017
556.38,0.015
555.39,0.014
554.4,0.012
553.41,0.012
552.42,0.011
551.43,0.011
550.4399999999999,0.011
549.45,0.011
548.46,0.011
547.47,0.011
546.48,0.011
545.49,0.011
544.5,0.010
543.51,0.010
542.52,0.011
541.53,0.010
540.54,0.010
539.55,0.011
538.56,0.011
537.57,0.011
536.58,0.010
535.59,0.011
534.6,0.012
533.61,0.012
532.62,0.012
531.63,0.012
530.64,0.012
529.65,0.013
528.66,0.013
527.67,0.013
526.68,0.013
525.6899999999999,0.014
524.7,0.014
523.71,0.015
522.72,0.016
521.73,0.018
520.74,0.020
519.75,0.023
518.76,0.024
517.77,0.026
516.78,0.028
515.79,0.028
514.8,0.028
513.81,0.029
512.82,0.029
511.83,0.030
510.84,0.032
509.85,0.038
508.86,0.045
507.87,0.057
506.88,0.072
505.89,0.089
504.9,0.107
503.90999999999997,0.126
502.92,0.141
501.93,0.152
500.94,0.160
499.95,0.162
498.96,0.158
497.96999999999997,0.148
496.98,0.132
495.99,0.114
495.0,0.092
494.01,0.070
493.02,0.050
492.03,0.034
491.04,0.022
490.05,0.015
489.06,0.011
488.07,0.009
487.08,0.008
486.09,0.007
485.1,0.007
484.11,0.007
483.12,0.006
482.13,0.006
481.14,0.006
480.15,0.006
479.15999999999997,0.005
478.17,0.005
477.18,0.005
476.19,0.005
475.2,0.005
474.21,0.005
473.21999999999997,0.005
472.23,0.005
471.24,0.004
470.25,0.004
469.26,0.005
468.27,0.005
467.28,0.004
466.29,0.005
465.3,0.004
464.31,0.004
463.32,0.004
462.33,0.004
461.34,0.004
460.35,0.004
459.36,0.004
458.37,0.004
457.38,0.004
456.39,0.004
455.4,0.004
454.40999999999997,0.005
453.42,0.005
452.43,0.005
451.44,0.005
450.45,0.004
449.46,0.004
448.46999999999997,0.004
447.48,0.004
446.49,0.004
445.5,0.004
444.51,0.004
443.52,0.004
442.53,0.004
441.54,0.004
440.55,0.004
439.56,0.004
438.57,0.004
437.58,0.004
436.59,0.004
435.6,0.004
434.61,0.004
433.62,0.004
432.63,0.005
431.64,0.004
430.65,0.004
429.65999999999997,0.004
428.67,0.004
427.68,0.004
426.69,0.004
425.7,0.005
424.71,0.004
423.71999999999997,0.004
422.73,0.004
421.74,0.005
420.75,0.004
419.76,0.005
418.77,0.005
417.78,0.004
416.79,0.004
415.8,0.004
414.81,0.004
413.82,0.005
412.83,0.004
411.84,0.004
410.85,0.004
409.86,0.004
408.87,0.005
407.88,0.004
406.89,0.004
405.9,0.004
404.90999999999997,0.004
403.92,0.004
402.93,0.004
401.94,0.004
400.95,0.004
399.96,0.005
398.96999999999997,0.004
397.98,0.004
396.99,0.004
396.0,0.004
395.01,0.004
394.02,0.004
393.03,0.004
392.04,0.004
391.05,0.004
390.06,0.004
389.07,0.004
388.08,0.004
387.09,0.004
386.1,0.004
385.11,0.004
384.12,0.004
383.13,0.004
382.14,0.004
381.15,0.004
380.15999999999997,0.004
