wavelength,amplitude
850.08,0.016
849.3100000000001,0.013
848.54,0.012
847.77,0.012
847.0,0.012
846.23,0.012
845.46,0.012
844.69,0.012
843.9200000000001,0.012
843.15,0.012
842.38,0.012
841.61,0.012
840.84,0.012
840.07,0.012
839.3000000000001,0.012
838.53,0.012
837.76,0.012
836.99,0.012
836.22,0.012
835.45,0.012
834.6800000000001,0.012
833.91,0.012
833.14,0.012
832.37,0.012
831.6,0.012
830.83,0.012
830.0600000000001,0.012
829.29,0.012
828.52,0.012
827.75,0.012
826.98,0.012
826.21,0.012
825.44,0.012
824.6700000000001,0.012
823.9,0.012
823.13,0.012
822.36,0.012
821.59,0.012
820.82,0.012
820.0500000000001,0.012
819.28,0.012
818.51,0.012
817.74,0.012
816.97,0.012
816.2,0.012
815.4300000000001,0.012
814.66,0.012
813.89,0.012
813.12,0.012
812.35,0.012
811.58,0.012
810.8100000000001,0.012
810.04,0.012
809.27,0.012
808.5,0.012
807.73,0.012
806.96,0.012
806.19,0.012
805.4200000000001,0.012
804.65,0.012
803.88,0.012
803.11,0.012
802.34,0.012
801.57,0.012
800.8000000000001,0.012
800.03,0.012
799.26,0.011
798.49,0.011
797.72,0.011
796.95,0.011
796.1800000000001,0.011
795.41,0.011
794.64,0.011
793.87,0.011
793.1,0.011
792.33,0.011
791.5600000000001,0.011
790.79,0.011
790.02,0.011
789.25,0.011
788.48,0.011
787.71,0.011
786.94,0.011
786.1700000000001,0.011
785.4,0.011
784.63,0.011
783.86,0.011
783.09,0.011
782.32,0.011
781.5500000000001,0.011
780.78,0.011
780.01,0.011
779.24,0.011
778.47,0.011
777.7,0.011
776.9300000000001,0.011
776.16,0.011
775.39,0.010
774.62,0.011
773.85,0.011
773.08,0.010
772.3100000000001,0.010
771.54,0.010
770.77,0.010
770.0,0.010
769.23,0.010
768.46,0.010
767.69,0.010
766.9200000000001,0.010
766.15,0.010
765.38,0.010
764.61,0.010
763.84,0.010
763.07,0.010
762.3000000000001,0.010
761.53,0.010
760.76,0.010
759.99,0.010
759.22,0.010
758.45,0.010
757.6800000000001,0.010
756.91,0.010
756.14,0.010
755.37,0.010
754.6,0.010
753.83,0.010
753.0600000000001,0.010
752.29,0.010
751.52,0.010
750.75,0.010
749.98,0.010
749.21,0.010
748.44,0.010
747.6700000000001,0.010
746.9,0.010
746.13,0.010
745.36,0.010
744.59,0.010
743.82,0.010
743.0500000000001,0.010
742.28,0.009
741.51,0.009
740.74,0.009
739.97,0.010
739.2,0.009
738.4300000000001,0.009
737.66,0.009
736.89,0.010
736.12,0.010
735.35,0.009
734.58,0.009
733.8100000000001,0.010
733.04,0.010
732.27,0.010
731.5,0.009
730.73,0.009
729.96,0.009
729.19,0.009
728.4200000000001,0.009
727.65,0.009
726.88,0.009
726.11,0.009
725.34,0.009
724.57,0.009
723.8000000000001,0.008
723.03,0.009
722.26,0.008
721.49,0.008
720.72,0.009
719.95,0.009
719.1800000000001,0.009
718.41,0.009
717.64,0.009
716.87,0.009
716.1,0.009
715.33,0.008
714.5600000000001,0.008
713.79,0.008
713.02,0.008
712.25,0.008
711.48,0.008
710.71,0.008
709.94,0.007
709.1700000000001,0.007
708.4,0.007
707.63,0.008
706.86,0.007
706.09,0.007
705.32,0.008
704.5500000000001,0.008
703.78,0.007
703.01,0.007
702.24,0.007
701.47,0.007
700.7,0.007
699.9300000000001,0.006
699.16,0.007
698.39,0.007
697.62,0.006
696.85,0.005
696.08,0.005
695.3100000000001,0.005
694.54,0.006
693.77,0.006
693.0,0.005
692.23,0.005
691.46,0.006
690.69,0.006
689.9200000000001,0.005
689.15,0.006
688.38,0.007
687.61,0.008
686.84,0.008
686.07,0.008
685.3000000000001,0.008
684.53,0.009
683.76,0.009
682.99,0.010
682.22,0.011
681.45,0.010
680.6800000000001,0.011
679.91,0.010
679.14,0.009
678.37,0.009
677.6,0.010
676.83,0.010
676.0600000000001,0.011
675.29,0.011
674.52,0.011
673.75,0.012
672.98,0.011
672.21,0.012
671.44,0.015
670.67,0.019
669.9,0.022
669.13,0.028
668.36,0.039
667.59,0.054
666.82,0.088
666.0500000000001,0.165
665.28,0.300
664.51,0.457
663.74,0.578
662.97,0.632
662.2,0.641
661.4300000000001,0.629
660.66,0.548
659.89,0.427
659.12,0.288
658.35,0.160
657.58,0.080
656.8100000000001,0.042
656.04,0.031
655.27,0.027
654.5,0.024
653.73,0.022
652.96,0.022
652.19,0.024
651.42,0.024
650.65,0.028
649.88,0.033
649.11,0.034
648.34,0.030
647.57,0.027
646.8000000000001,0.023
646.03,0.020
645.26,0.018
644.49,0.017
643.72,0.019
642.95,0.019
642.1800000000001,0.019
641.41,0.020
640.64,0.019
639.87,0.020
639.1,0.022
638.33,0.024
637.5600000000001,0.026
636.79,0.028
636.02,0.029
635.25,0.030
634.48,0.031
633.71,0.031
632.94,0.032
632.17,0.033
631.4,0.034
630.63,0.034
629.86,0.036
629.09,0.036
628.32,0.037
627.5500000000001,0.042
626.78,0.048
626.01,0.054
625.24,0.059
624.47,0.060
623.7,0.059
622.9300000000001,0.059
622.16,0.060
621.39,0.064
620.62,0.067
619.85,0.070
619.08,0.073
618.3100000000001,0.077
617.54,0.079
616.77,0.084
616.0,0.088
615.23,0.092
614.46,0.094
613.69,0.096
612.92,0.096
612.15,0.095
611.38,0.095
610.61,0.098
609.84,0.104
609.07,0.111
608.3000000000001,0.114
607.53,0.118
606.76,0.120
605.99,0.124
605.22,0.130
604.45,0.144
603.6800000000001,0.151
602.91,0.156
602.14,0.156
601.37,0.153
600.6,0.146
599.83,0.145
599.0600000000001,0.149
598.29,0.157
597.52,0.162
596.75,0.166
595.98,0.167
595.21,0.170
594.44,0.172
593.67,0.172
592.9,0.169
592.13,0.163
591.36,0.157
590.59,0.153
589.82,0.152
589.0500000000001,0.151
588.28,0.152
587.51,0.155
586.74,0.152
585.97,0.147
585.2,0.145
584.4300000000001,0.147
583.66,0.157
582.89,0.173
582.12,0.189
581.35,0.199
580.58,0.202
579.8100000000001,0.194
579.04,0.181
578.27,0.166
577.5,0.150
576.73,0.138
575.96,0.132
575.19,0.128
574.42,0.123
573.65,0.122
572.88,0.120
572.11,0.119
571.34,0.116
570.57,0.112
569.8000000000001,0.109
569.03,0.108
568.26,0.104
567.49,0.101
566.72,0.096
565.95,0.088
565.1800000000001,0.080
564.41,0.072
563.64,0.065
562.87,0.061
562.1,0.056
561.33,0.053
560.5600000000001,0.049
559.79,0.047
559.02,0.045
558.25,0.044
557.48,0.042
556.71,0.041
555.94,0.041
555.17,0.042
554.4,0.043
553.63,0.044
552.86,0.046
552.09,0.048
551.32,0.047
550.5500000000001,0.047
549.78,0.047
549.01,0.047
548.24,0.046
547.47,0.046
546.7,0.046
545.9300000000001,0.048
545.16,0.047
544.39,0.047
543.62,0.047
542.85,0.051
542.08,0.054
541.3100000000001,0.058
540.54,0.063
539.77,0.066
539.0,0.065
538.23,0.063
537.46,0.062
536.69,0.059
535.92,0.058
535.15,0.057
534.38,0.055
533.61,0.055
532.84,0.055
532.07,0.054
531.3000000000001,0.054
530.53,0.054
529.76,0.055
528.99,0.058
528.22,0.059
527.45,0.060
526.6800000000001,0.061
525.91,0.062
525.14,0.063
524.37,0.062
523.6,0.061
522.83,0.059
522.0600000000001,0.059
521.29,0.057
520.52,0.057
519.75,0.057
518.98,0.058
518.21,0.058
517.44,0.060
516.67,0.060
515.9,0.061
515.13,0.060
514.36,0.060
513.59,0.060
512.82,0.060
512.0500000000001,0.059
511.28000000000003,0.058
510.51,0.060
509.74,0.063
508.97,0.065
508.2,0.067
507.43,0.068
506.66,0.069
505.89,0.071
505.12,0.074
504.35,0.076
503.58,0.078
502.81,0.079
502.04,0.080
501.27000000000004,0.081
500.5,0.083
499.73,0.085
498.96000000000004,0.088
498.19,0.092
497.42,0.094
496.65000000000003,0.098
495.88,0.104
495.11,0.110
494.34000000000003,0.121
493.57,0.133
492.8,0.147
492.03000000000003,0.168
491.26,0.194
490.49,0.224
489.72,0.257
488.95,0.297
488.18,0.369
487.41,0.521
486.64,0.732
485.87,0.897
485.1,0.982
484.33,1.000
483.56,0.995
482.79,0.992
482.02000000000004,0.949
481.25,0.816
480.48,0.637
479.71000000000004,0.438
478.94,0.287
478.17,0.239
477.40000000000003,0.219
476.63,0.202
475.86,0.189
475.09000000000003,0.183
474.32,0.181
473.55,0.184
472.78000000000003,0.189
472.01,0.190
471.24,0.186
470.47,0.176
469.7,0.162
468.93,0.149
468.16,0.140
467.39,0.135
466.62,0.133
465.85,0.131
465.08,0.132
464.31,0.132
463.54,0.134
462.77000000000004,0.135
462.0,0.135
461.23,0.136
460.46000000000004,0.135
459.69,0.133
458.92,0.131
458.15000000000003,0.131
457.38,0.132
456.61,0.133
455.84000000000003,0.134
455.07,0.134
454.3,0.134
453.53000000000003,0.134
452.76,0.133
451.99,0.133
451.22,0.134
450.45,0.135
449.68,0.136
448.91,0.137
448.14,0.138
447.37,0.138
446.6,0.139
445.83,0.138
445.06,0.139
444.29,0.139
443.52,0.140
442.75,0.140
441.98,0.142
441.21000000000004,0.142
440.44,0.141
439.67,0.142
438.90000000000003,0.144
438.13,0.155
437.36,0.177
436.59000000000003,0.212
435.82,0.253
435.05,0.282
434.28000000000003,0.297
433.51,0.304
432.74,0.306
431.97,0.305
431.2,0.295
430.43,0.267
429.66,0.215
428.89,0.173
428.12,0.143
427.35,0.127
426.58,0.123
425.81,0.120
425.04,0.118
424.27,0.117
423.5,0.117
422.73,0.117
421.96000000000004,0.118
421.19,0.119
420.42,0.120
419.65000000000003,0.120
418.88,0.117
418.11,0.115
417.34000000000003,0.113
416.57,0.113
415.8,0.114
415.03000000000003,0.116
414.26,0.123
413.49,0.132
412.72,0.146
411.95,0.163
411.18,0.180
410.41,0.190
409.64,0.194
408.87,0.188
408.1,0.171
407.33,0.151
406.56,0.129
405.79,0.115
405.02,0.107
404.25,0.102
403.48,0.100
402.71000000000004,0.099
401.94,0.099
401.17,0.099
400.40000000000003,0.102
399.63,0.105
398.86,0.107
398.09000000000003,0.108
397.32,0.107
396.55,0.103
395.78000000000003,0.096
395.01,0.088
394.24,0.079
393.47,0.071
392.7,0.064
391.93,0.059
391.16,0.054
390.39,0.050
389.62,0.048
388.85,0.046
388.08,0.043
387.31,0.038
386.54,0.034
385.77,0.030
385.0,0.025
384.23,0.022
383.46000000000004,0.020
382.69,0.017
381.92,0.016
381.15000000000003,0.014
380.38,0.013
