wavelength,amplitude
958.93,0.547
957.9499999999999,0.516
956.97,0.509
955.99,0.535
955.01,0.546
954.03,0.547
953.05,0.514
952.0699999999999,0.535
951.09,0.539
950.11,0.525
949.13,0.523
948.15,0.543
947.17,0.509
946.1899999999999,0.548
945.21,0.548
944.23,0.554
943.25,0.573
942.27,0.574
941.29,0.588
940.31,0.582
939.3299999999999,0.598
938.35,0.590
937.37,0.569
936.39,0.581
935.41,0.594
934.43,0.597
933.4499999999999,0.620
932.47,0.640
931.49,0.647
930.51,0.601
929.53,0.613
928.55,0.631
927.5699999999999,0.621
926.59,0.612
925.61,0.629
924.63,0.663
923.65,0.617
922.67,0.594
921.6899999999999,0.639
920.71,0.661
919.73,0.681
918.75,0.664
917.77,0.651
916.79,0.622
915.81,0.656
914.8299999999999,0.666
913.85,0.676
912.87,0.665
911.89,0.623
910.91,0.666
909.93,0.658
908.9499999999999,0.657
907.97,0.641
906.99,0.648
906.01,0.649
905.03,0.614
904.05,0.654
903.0699999999999,0.647
902.09,0.621
901.11,0.641
900.13,0.636
899.15,0.626
898.17,0.612
897.1899999999999,0.611
896.21,0.615
895.23,0.615
894.25,0.591
893.27,0.610
892.29,0.563
891.31,0.565
890.3299999999999,0.540
889.35,0.566
888.37,0.536
887.39,0.546
886.41,0.517
885.43,0.529
884.4499999999999,0.509
883.47,0.529
882.49,0.549
881.51,0.541
880.53,0.502
879.55,0.492
878.5699999999999,0.466
877.59,0.476
876.61,0.491
875.63,0.478
874.65,0.473
873.67,0.464
872.6899999999999,0.444
871.71,0.426
870.73,0.422
869.75,0.408
868.77,0.381
867.79,0.384
866.81,0.375
865.83,0.346
864.85,0.333
863.87,0.327
862.89,0.301
861.91,0.279
860.93,0.291
859.9499999999999,0.305
858.97,0.318
857.99,0.306
857.01,0.337
856.03,0.310
855.05,0.343
854.0699999999999,0.352
853.09,0.362
852.11,0.413
851.13,0.381
850.15,0.444
849.17,0.461
848.1899999999999,0.469
847.21,0.478
846.23,0.490
845.25,0.483
844.27,0.479
843.29,0.486
842.31,0.497
841.33,0.491
840.35,0.496
839.37,0.522
838.39,0.509
837.41,0.519
836.43,0.510
835.4499999999999,0.516
834.47,0.500
833.49,0.497
832.51,0.523
831.53,0.525
830.55,0.518
829.5699999999999,0.523
828.59,0.512
827.61,0.506
826.63,0.495
825.65,0.524
824.67,0.520
823.6899999999999,0.522
822.71,0.543
821.73,0.527
820.75,0.540
819.77,0.531
818.79,0.526
817.81,0.524
816.83,0.537
815.85,0.505
814.87,0.504
813.89,0.544
812.91,0.525
811.93,0.551
810.9499999999999,0.540
809.97,0.530
808.99,0.545
808.01,0.505
807.03,0.491
806.05,0.491
805.0699999999999,0.502
804.09,0.495
803.11,0.499
802.13,0.526
801.15,0.524
800.17,0.529
799.1899999999999,0.517
798.21,0.560
797.23,0.539
796.25,0.555
795.27,0.546
794.29,0.564
793.31,0.571
792.33,0.591
791.35,0.582
790.37,0.600
789.39,0.570
788.41,0.561
787.43,0.564
786.4499999999999,0.550
785.47,0.565
784.49,0.562
783.51,0.522
782.53,0.544
781.55,0.545
780.5699999999999,0.536
779.59,0.522
778.61,0.529
777.63,0.528
776.65,0.536
775.67,0.509
774.6899999999999,0.511
773.71,0.492
772.73,0.519
771.75,0.498
770.77,0.526
769.79,0.540
768.81,0.529
767.83,0.519
766.85,0.527
765.87,0.502
764.89,0.473
763.91,0.488
762.93,0.448
761.9499999999999,0.434
760.97,0.430
759.99,0.425
759.01,0.434
758.03,0.418
757.05,0.422
756.0699999999999,0.412
755.09,0.428
754.11,0.419
753.13,0.414
752.15,0.425
751.17,0.423
750.1899999999999,0.423
749.21,0.437
748.23,0.436
747.25,0.463
746.27,0.451
745.29,0.449
744.31,0.467
743.33,0.474
742.35,0.474
741.37,0.483
740.39,0.463
739.41,0.461
738.43,0.456
737.4499999999999,0.470
736.47,0.446
735.49,0.447
734.51,0.435
733.53,0.455
732.55,0.439
731.5699999999999,0.434
730.59,0.435
729.61,0.449
728.63,0.458
727.65,0.465
726.67,0.450
725.6899999999999,0.465
724.71,0.467
723.73,0.470
722.75,0.464
721.77,0.475
720.79,0.465
719.81,0.474
718.83,0.466
717.85,0.478
716.87,0.482
715.89,0.487
714.91,0.496
713.93,0.481
712.9499999999999,0.498
711.97,0.486
710.99,0.496
710.01,0.502
709.03,0.512
708.05,0.515
707.0699999999999,0.521
706.09,0.527
705.11,0.525
704.13,0.528
703.15,0.541
702.17,0.510
701.1899999999999,0.527
700.21,0.527
699.23,0.531
698.25,0.527
697.27,0.544
696.29,0.530
695.31,0.519
694.33,0.514
693.35,0.519
692.37,0.517
691.39,0.510
690.41,0.498
689.43,0.490
688.4499999999999,0.490
687.47,0.478
686.49,0.494
685.51,0.481
684.53,0.499
683.55,0.480
682.5699999999999,0.465
681.59,0.463
680.61,0.459
679.63,0.454
678.65,0.457
677.67,0.443
676.6899999999999,0.461
675.71,0.448
674.73,0.458
673.75,0.468
672.77,0.460
671.79,0.453
670.81,0.450
669.83,0.459
668.85,0.454
667.87,0.445
666.89,0.456
665.91,0.449
664.93,0.446
663.9499999999999,0.464
662.97,0.441
661.99,0.452
661.01,0.441
660.03,0.460
659.05,0.443
658.0699999999999,0.457
657.09,0.447
656.11,0.447
655.13,0.457
654.15,0.443
653.17,0.445
652.1899999999999,0.453
651.21,0.431
650.23,0.448
649.25,0.445
648.27,0.438
647.29,0.453
646.31,0.461
645.33,0.452
644.35,0.458
643.37,0.461
642.39,0.468
641.41,0.475
640.43,0.494
639.4499999999999,0.481
638.47,0.492
637.49,0.501
636.51,0.502
635.53,0.488
634.55,0.502
633.5699999999999,0.503
632.59,0.503
631.61,0.523
630.63,0.508
629.65,0.518
628.67,0.530
627.6899999999999,0.505
626.71,0.510
625.73,0.512
624.75,0.477
623.77,0.477
622.79,0.474
621.81,0.457
620.83,0.453
619.85,0.437
618.87,0.416
617.89,0.399
616.91,0.385
615.93,0.386
614.95,0.378
613.97,0.382
612.99,0.373
612.01,0.370
611.03,0.380
610.05,0.374
609.0699999999999,0.383
608.09,0.379
607.11,0.387
606.13,0.394
605.15,0.399
604.17,0.391
603.1899999999999,0.411
602.21,0.400
601.23,0.407
600.25,0.409
599.27,0.411
598.29,0.421
597.31,0.421
596.33,0.419
595.35,0.432
594.37,0.434
593.39,0.445
592.41,0.442
591.43,0.452
590.45,0.459
589.47,0.465
588.49,0.469
587.51,0.475
586.53,0.466
585.55,0.480
584.5699999999999,0.475
583.59,0.485
582.61,0.494
581.63,0.500
580.65,0.501
579.67,0.516
578.6899999999999,0.530
577.71,0.540
576.73,0.547
575.75,0.543
574.77,0.569
573.79,0.584
572.81,0.591
571.83,0.604
570.85,0.617
569.87,0.622
568.89,0.598
567.91,0.615
566.93,0.605
565.95,0.605
564.97,0.612
563.99,0.612
563.01,0.613
562.03,0.620
561.05,0.618
560.0699999999999,0.630
559.09,0.627
558.11,0.630
557.13,0.640
556.15,0.645
555.17,0.641
554.1899999999999,0.667
553.21,0.658
552.23,0.671
551.25,0.680
550.27,0.705
549.29,0.713
548.31,0.724
547.33,0.732
546.35,0.743
545.37,0.751
544.39,0.765
543.41,0.780
542.43,0.782
541.45,0.792
540.47,0.786
539.49,0.807
538.51,0.821
537.53,0.842
536.55,0.847
535.5699999999999,0.866
534.59,0.870
533.61,0.878
532.63,0.900
531.65,0.906
530.67,0.927
529.6899999999999,0.944
528.71,0.956
527.73,0.963
526.75,0.971
525.77,0.977
524.79,0.984
523.81,0.989
522.83,0.986
521.85,1.000
520.87,0.995
519.89,0.986
518.91,0.987
517.93,0.991
516.95,0.994
515.97,0.989
514.99,0.996
514.01,0.990
513.03,0.988
512.05,0.988
511.07,0.981
510.09,0.974
509.11,0.979
508.13,0.973
507.15,0.958
506.17,0.963
505.19,0.943
504.21,0.939
503.23,0.933
502.25,0.931
501.27,0.913
500.28999999999996,0.912
499.31,0.910
498.33,0.886
497.34999999999997,0.894
496.37,0.881
495.39,0.867
494.40999999999997,0.869
493.43,0.862
492.45,0.858
491.46999999999997,0.858
490.49,0.839
489.51,0.820
488.53,0.800
487.55,0.804
486.57,0.802
485.59,0.799
484.61,0.795
483.63,0.795
482.65,0.794
481.67,0.790
480.69,0.798
479.71,0.798
478.73,0.789
477.75,0.779
476.77,0.772
475.78999999999996,0.768
474.81,0.760
473.83,0.757
472.84999999999997,0.746
471.87,0.746
470.89,0.734
469.90999999999997,0.733
468.93,0.717
467.95,0.720
466.96999999999997,0.711
465.99,0.703
465.01,0.687
464.03,0.678
463.05,0.655
462.07,0.647
461.09,0.631
460.11,0.627
459.13,0.624
458.15,0.610
457.17,0.608
456.19,0.600
455.21,0.591
454.23,0.587
453.25,0.582
452.27,0.572
451.28999999999996,0.569
450.31,0.564
449.33,0.566
448.34999999999997,0.559
447.37,0.563
446.39,0.556
445.40999999999997,0.555
444.43,0.554
443.45,0.543
442.46999999999997,0.539
441.49,0.536
440.51,0.525
439.53,0.530
438.55,0.519
437.57,0.520
436.59,0.524
435.61,0.515
434.63,0.506
433.65,0.495
432.67,0.486
431.69,0.473
430.71,0.463
429.73,0.459
428.75,0.451
427.77,0.440
426.79,0.431
425.81,0.421
424.83,0.397
423.84999999999997,0.382
422.87,0.360
421.89,0.335
420.90999999999997,0.315
419.93,0.299
418.95,0.277
417.96999999999997,0.257
416.99,0.239
416.01,0.223
415.03,0.214
414.05,0.203
413.07,0.197
412.09,0.186
411.11,0.181
410.13,0.161
409.15,0.155
408.17,0.146
407.19,0.134
406.21,0.126
405.23,0.119
404.25,0.108
403.27,0.106
402.29,0.107
401.31,0.099
400.33,0.099
399.34999999999997,0.087
398.37,0.089
397.39,0.087
396.40999999999997,0.087
395.43,0.088
394.45,0.082
393.46999999999997,0.088
392.49,0.081
391.51,0.084
390.53,0.077
389.55,0.080
388.57,0.082
387.59,0.077
386.61,0.079
385.63,0.071
384.65,0.072
383.67,0.075
382.69,0.077
381.71,0.076
380.73,0.081
