wavelength,amplitude
958.4399999999999,0.126
957.46,0.108
956.48,0.113
955.5,0.094
954.52,0.114
953.54,0.112
952.56,0.113
951.5799999999999,0.104
950.6,0.099
949.62,0.106
948.64,0.129
947.66,0.111
946.68,0.116
945.6999999999999,0.119
944.72,0.107
943.74,0.106
942.76,0.114
941.78,0.107
940.8,0.101
939.8199999999999,0.094
938.84,0.105
937.86,0.096
936.88,0.099
935.9,0.102
934.92,0.102
933.9399999999999,0.107
932.96,0.096
931.98,0.102
931.0,0.097
930.02,0.103
929.04,0.099
928.06,0.099
927.0799999999999,0.106
926.1,0.092
925.12,0.094
924.14,0.095
923.16,0.099
922.18,0.096
921.1999999999999,0.104
920.22,0.099
919.24,0.095
918.26,0.094
917.28,0.087
916.3,0.085
915.3199999999999,0.089
914.34,0.101
913.36,0.091
912.38,0.096
911.4,0.105
910.42,0.091
909.4399999999999,0.084
908.46,0.101
907.48,0.115
906.5,0.114
905.52,0.096
904.54,0.096
903.56,0.094
902.5799999999999,0.093
901.6,0.100
900.62,0.101
899.64,0.098
898.66,0.104
897.68,0.098
896.6999999999999,0.102
895.72,0.106
894.74,0.091
893.76,0.087
892.78,0.091
891.8,0.095
890.8199999999999,0.090
889.84,0.091
888.86,0.102
887.88,0.101
886.9,0.105
885.92,0.096
884.9399999999999,0.096
883.96,0.095
882.98,0.103
882.0,0.097
881.02,0.096
880.04,0.093
879.06,0.088
878.0799999999999,0.095
877.1,0.102
876.12,0.096
875.14,0.090
874.16,0.090
873.18,0.093
872.1999999999999,0.102
871.22,0.094
870.24,0.090
869.26,0.084
868.28,0.089
867.3,0.089
866.3199999999999,0.086
865.34,0.087
864.36,0.082
863.38,0.093
862.4,0.088
861.42,0.089
860.4399999999999,0.090
859.46,0.095
858.48,0.091
857.5,0.098
856.52,0.120
855.54,0.099
854.56,0.103
853.58,0.101
852.6,0.092
851.62,0.084
850.64,0.097
849.66,0.087
848.68,0.100
847.6999999999999,0.099
846.72,0.093
845.74,0.099
844.76,0.084
843.78,0.092
842.8,0.082
841.8199999999999,0.093
840.84,0.089
839.86,0.086
838.88,0.085
837.9,0.088
836.92,0.078
835.9399999999999,0.083
834.96,0.089
833.98,0.097
833.0,0.092
832.02,0.095
831.04,0.089
830.06,0.087
829.08,0.083
828.1,0.087
827.12,0.089
826.14,0.083
825.16,0.083
824.18,0.091
823.1999999999999,0.093
822.22,0.089
821.24,0.088
820.26,0.081
819.28,0.080
818.3,0.088
817.3199999999999,0.085
816.34,0.088
815.36,0.090
814.38,0.092
813.4,0.091
812.42,0.085
811.4399999999999,0.092
810.46,0.088
809.48,0.085
808.5,0.086
807.52,0.089
806.54,0.094
805.56,0.087
804.58,0.080
803.6,0.082
802.62,0.080
801.64,0.090
800.66,0.093
799.68,0.082
798.6999999999999,0.082
797.72,0.083
796.74,0.084
795.76,0.097
794.78,0.093
793.8,0.093
792.8199999999999,0.084
791.84,0.093
790.86,0.094
789.88,0.096
788.9,0.098
787.92,0.118
786.9399999999999,0.103
785.96,0.101
784.98,0.101
784.0,0.116
783.02,0.118
782.04,0.127
781.06,0.121
780.08,0.111
779.1,0.111
778.12,0.102
777.14,0.103
776.16,0.104
775.18,0.102
774.1999999999999,0.094
773.22,0.089
772.24,0.085
771.26,0.092
770.28,0.087
769.3,0.081
768.3199999999999,0.093
767.34,0.088
766.36,0.080
765.38,0.077
764.4,0.080
763.42,0.076
762.4399999999999,0.072
761.46,0.068
760.48,0.085
759.5,0.082
758.52,0.077
757.54,0.084
756.56,0.076
755.58,0.080
754.6,0.076
753.62,0.076
752.64,0.073
751.66,0.078
750.68,0.079
749.6999999999999,0.084
748.72,0.079
747.74,0.076
746.76,0.075
745.78,0.073
744.8,0.079
743.8199999999999,0.072
742.84,0.074
741.86,0.070
740.88,0.076
739.9,0.066
738.92,0.064
737.9399999999999,0.069
736.96,0.062
735.98,0.063
735.0,0.074
734.02,0.067
733.04,0.069
732.06,0.066
731.08,0.075
730.1,0.072
729.12,0.076
728.14,0.077
727.16,0.070
726.18,0.077
725.1999999999999,0.078
724.22,0.077
723.24,0.070
722.26,0.075
721.28,0.072
720.3,0.077
719.3199999999999,0.074
718.34,0.075
717.36,0.074
716.38,0.076
715.4,0.065
714.42,0.071
713.4399999999999,0.061
712.46,0.068
711.48,0.070
710.5,0.068
709.52,0.075
708.54,0.081
707.56,0.084
706.58,0.080
705.6,0.083
704.62,0.081
703.64,0.082
702.66,0.072
701.68,0.072
700.6999999999999,0.076
699.72,0.070
698.74,0.068
697.76,0.067
696.78,0.071
695.8,0.074
694.8199999999999,0.072
693.84,0.073
692.86,0.069
691.88,0.067
690.9,0.068
689.92,0.067
688.9399999999999,0.068
687.96,0.073
686.98,0.075
686.0,0.090
685.02,0.101
684.04,0.110
683.06,0.128
682.08,0.149
681.1,0.162
680.12,0.167
679.14,0.183
678.16,0.173
677.18,0.186
676.1999999999999,0.186
675.22,0.185
674.24,0.189
673.26,0.202
672.28,0.212
671.3,0.229
670.3199999999999,0.243
669.34,0.245
668.36,0.265
667.38,0.271
666.4,0.285
665.42,0.297
664.4399999999999,0.315
663.46,0.338
662.48,0.399
661.5,0.467
660.52,0.550
659.54,0.642
658.56,0.694
657.58,0.729
656.6,0.716
655.62,0.689
654.64,0.631
653.66,0.558
652.68,0.453
651.6999999999999,0.338
650.72,0.230
649.74,0.182
648.76,0.150
647.78,0.152
646.8,0.147
645.8199999999999,0.157
644.84,0.150
643.86,0.147
642.88,0.149
641.9,0.140
640.92,0.142
639.9399999999999,0.147
638.96,0.157
637.98,0.168
637.0,0.166
636.02,0.199
635.04,0.207
634.06,0.230
633.08,0.253
632.1,0.275
631.12,0.302
630.14,0.320
629.16,0.340
628.18,0.344
627.2,0.357
626.22,0.352
625.24,0.359
624.26,0.322
623.28,0.311
622.3,0.281
621.3199999999999,0.263
620.34,0.242
619.36,0.206
618.38,0.174
617.4,0.148
616.42,0.122
615.4399999999999,0.109
614.46,0.088
613.48,0.071
612.5,0.059
611.52,0.051
610.54,0.046
609.56,0.045
608.58,0.041
607.6,0.045
606.62,0.040
605.64,0.043
604.66,0.044
603.68,0.042
602.7,0.041
601.72,0.042
600.74,0.044
599.76,0.044
598.78,0.043
597.8,0.046
596.8199999999999,0.052
595.84,0.051
594.86,0.056
593.88,0.063
592.9,0.067
591.92,0.087
590.9399999999999,0.113
589.96,0.149
588.98,0.187
588.0,0.238
587.02,0.273
586.04,0.313
585.06,0.362
584.08,0.425
583.1,0.502
582.12,0.614
581.14,0.730
580.16,0.821
579.18,0.919
578.2,0.990
577.22,1.000
576.24,0.966
575.26,0.909
574.28,0.792
573.3,0.670
572.3199999999999,0.520
571.34,0.383
570.36,0.274
569.38,0.198
568.4,0.158
567.42,0.132
566.4399999999999,0.110
565.46,0.085
564.48,0.073
563.5,0.064
562.52,0.054
561.54,0.050
560.56,0.045
559.58,0.042
558.6,0.043
557.62,0.037
556.64,0.039
555.66,0.035
554.68,0.041
553.7,0.043
552.72,0.038
551.74,0.039
550.76,0.040
549.78,0.035
548.8,0.038
547.8199999999999,0.043
546.84,0.039
545.86,0.040
544.88,0.039
543.9,0.042
542.92,0.043
541.9399999999999,0.042
540.96,0.039
539.98,0.040
539.0,0.046
538.02,0.044
537.04,0.047
536.06,0.045
535.08,0.055
534.1,0.053
533.12,0.059
532.14,0.066
531.16,0.080
530.18,0.099
529.2,0.118
528.22,0.148
527.24,0.177
526.26,0.219
525.28,0.249
524.3,0.302
523.3199999999999,0.337
522.34,0.384
521.36,0.411
520.38,0.434
519.4,0.480
518.42,0.507
517.4399999999999,0.522
516.46,0.550
515.48,0.560
514.5,0.530
513.52,0.512
512.54,0.460
511.56,0.393
510.58,0.328
509.59999999999997,0.264
508.62,0.198
507.64,0.154
506.65999999999997,0.115
505.68,0.093
504.7,0.095
503.71999999999997,0.077
502.74,0.081
501.76,0.074
500.78,0.071
499.8,0.070
498.82,0.067
497.84,0.072
496.86,0.068
495.88,0.068
494.9,0.067
493.92,0.067
492.94,0.069
491.96,0.067
490.98,0.072
490.0,0.072
489.02,0.069
488.03999999999996,0.074
487.06,0.075
486.08,0.076
485.09999999999997,0.077
484.12,0.077
483.14,0.075
482.15999999999997,0.077
481.18,0.075
480.2,0.081
479.21999999999997,0.081
478.24,0.083
477.26,0.087
476.28,0.087
475.3,0.084
474.32,0.090
473.34,0.086
472.36,0.088
471.38,0.086
470.4,0.088
469.42,0.089
468.44,0.093
467.46,0.093
466.48,0.098
465.5,0.116
464.52,0.142
463.53999999999996,0.200
462.56,0.274
461.58,0.330
460.59999999999997,0.376
459.62,0.379
458.64,0.374
457.65999999999997,0.334
456.68,0.262
455.7,0.191
454.71999999999997,0.121
453.74,0.089
452.76,0.073
451.78,0.071
450.8,0.066
449.82,0.068
448.84,0.060
447.86,0.058
446.88,0.049
445.9,0.050
444.92,0.047
443.94,0.048
442.96,0.040
441.98,0.043
441.0,0.045
440.02,0.046
439.03999999999996,0.045
438.06,0.045
437.08,0.043
436.09999999999997,0.042
435.12,0.044
434.14,0.042
433.15999999999997,0.042
432.18,0.044
431.2,0.049
430.21999999999997,0.057
429.24,0.063
428.26,0.069
427.28,0.073
426.3,0.072
425.32,0.067
424.34,0.055
423.36,0.048
422.38,0.037
421.4,0.037
420.42,0.035
419.44,0.035
418.46,0.034
417.48,0.034
416.5,0.032
415.52,0.031
414.54,0.029
413.56,0.031
412.58,0.031
411.59999999999997,0.028
410.62,0.030
409.64,0.027
408.65999999999997,0.026
407.68,0.024
406.7,0.025
405.71999999999997,0.025
404.74,0.025
403.76,0.027
402.78,0.027
401.8,0.025
400.82,0.024
399.84,0.025
398.86,0.026
397.88,0.026
396.9,0.025
395.92,0.026
394.94,0.027
393.96,0.025
392.98,0.026
392.0,0.028
391.02,0.029
390.04,0.028
389.06,0.027
388.08,0.027
387.09999999999997,0.028
386.12,0.027
385.14,0.025
384.15999999999997,0.025
383.18,0.026
382.2,0.025
381.21999999999997,0.027
380.24,0.023
