wavelength,amplitude
956.48,0.354
955.5,0.349
954.52,0.347
953.54,0.350
952.56,0.353
951.5799999999999,0.353
950.6,0.350
949.62,0.350
948.64,0.353
947.66,0.351
946.68,0.353
945.6999999999999,0.365
944.72,0.368
943.74,0.362
942.76,0.367
941.78,0.366
940.8,0.373
939.8199999999999,0.374
938.84,0.368
937.86,0.373
936.88,0.378
935.9,0.383
934.92,0.389
933.9399999999999,0.394
932.96,0.398
931.98,0.401
931.0,0.405
930.02,0.407
929.04,0.410
928.06,0.419
927.0799999999999,0.419
926.1,0.420
925.12,0.428
924.14,0.432
923.16,0.425
922.18,0.425
921.1999999999999,0.425
920.22,0.425
919.24,0.420
918.26,0.422
917.28,0.425
916.3,0.430
915.3199999999999,0.436
914.34,0.432
913.36,0.427
912.38,0.427
911.4,0.425
910.42,0.418
909.4399999999999,0.429
908.46,0.427
907.48,0.424
906.5,0.427
905.52,0.428
904.54,0.432
903.56,0.438
902.5799999999999,0.439
901.6,0.439
900.62,0.440
899.64,0.438
898.66,0.434
897.68,0.438
896.6999999999999,0.447
895.72,0.444
894.74,0.445
893.76,0.440
892.78,0.433
891.8,0.432
890.8199999999999,0.432
889.84,0.423
888.86,0.419
887.88,0.420
886.9,0.419
885.92,0.427
884.9399999999999,0.429
883.96,0.431
882.98,0.430
882.0,0.427
881.02,0.427
880.04,0.425
879.06,0.427
878.0799999999999,0.424
877.1,0.408
876.12,0.410
875.14,0.406
874.16,0.399
873.18,0.401
872.1999999999999,0.398
871.22,0.396
870.24,0.388
869.26,0.375
868.28,0.368
867.3,0.357
866.3199999999999,0.349
865.34,0.339
864.36,0.326
863.38,0.317
862.4,0.314
861.42,0.307
860.4399999999999,0.299
859.46,0.286
858.48,0.282
857.5,0.279
856.52,0.285
855.54,0.295
854.56,0.298
853.58,0.308
852.6,0.324
851.62,0.339
850.64,0.349
849.66,0.360
848.68,0.378
847.6999999999999,0.397
846.72,0.407
845.74,0.412
844.76,0.418
843.78,0.425
842.8,0.429
841.8199999999999,0.434
840.84,0.437
839.86,0.433
838.88,0.430
837.9,0.429
836.92,0.431
835.9399999999999,0.433
834.96,0.424
833.98,0.423
833.0,0.426
832.02,0.428
831.04,0.419
830.06,0.426
829.08,0.426
828.1,0.425
827.12,0.425
826.14,0.422
825.16,0.417
824.18,0.421
823.1999999999999,0.425
822.22,0.419
821.24,0.414
820.26,0.415
819.28,0.413
818.3,0.411
817.3199999999999,0.409
816.34,0.406
815.36,0.404
814.38,0.401
813.4,0.399
812.42,0.396
811.4399999999999,0.388
810.46,0.388
809.48,0.390
808.5,0.388
807.52,0.388
806.54,0.398
805.56,0.400
804.58,0.398
803.6,0.397
802.62,0.391
801.64,0.393
800.66,0.395
799.68,0.397
798.6999999999999,0.399
797.72,0.402
796.74,0.410
795.76,0.417
794.78,0.423
793.8,0.422
792.8199999999999,0.435
791.84,0.433
790.86,0.438
789.88,0.446
788.9,0.445
787.92,0.454
786.9399999999999,0.459
785.96,0.464
784.98,0.464
784.0,0.457
783.02,0.458
782.04,0.451
781.06,0.445
780.08,0.442
779.1,0.434
778.12,0.438
777.14,0.436
776.16,0.430
775.18,0.431
774.1999999999999,0.431
773.22,0.431
772.24,0.427
771.26,0.422
770.28,0.425
769.3,0.426
768.3199999999999,0.429
767.34,0.430
766.36,0.428
765.38,0.425
764.4,0.426
763.42,0.423
762.4399999999999,0.420
761.46,0.418
760.48,0.409
759.5,0.401
758.52,0.396
757.54,0.392
756.56,0.387
755.58,0.385
754.6,0.384
753.62,0.383
752.64,0.385
751.66,0.389
750.68,0.390
749.6999999999999,0.395
748.72,0.402
747.74,0.406
746.76,0.411
745.78,0.417
744.8,0.422
743.8199999999999,0.425
742.84,0.424
741.86,0.426
740.88,0.429
739.9,0.433
738.92,0.437
737.9399999999999,0.439
736.96,0.442
735.98,0.443
735.0,0.444
734.02,0.446
733.04,0.450
732.06,0.454
731.08,0.459
730.1,0.463
729.12,0.469
728.14,0.475
727.16,0.482
726.18,0.489
725.1999999999999,0.494
724.22,0.499
723.24,0.507
722.26,0.513
721.28,0.521
720.3,0.522
719.3199999999999,0.526
718.34,0.532
717.36,0.535
716.38,0.535
715.4,0.539
714.42,0.539
713.4399999999999,0.543
712.46,0.545
711.48,0.549
710.5,0.554
709.52,0.560
708.54,0.565
707.56,0.567
706.58,0.568
705.6,0.572
704.62,0.576
703.64,0.575
702.66,0.576
701.68,0.578
700.6999999999999,0.580
699.72,0.584
698.74,0.584
697.76,0.585
696.78,0.588
695.8,0.587
694.8199999999999,0.588
693.84,0.589
692.86,0.588
691.88,0.588
690.9,0.590
689.92,0.591
688.9399999999999,0.590
687.96,0.589
686.98,0.586
686.0,0.585
685.02,0.583
684.04,0.581
683.06,0.580
682.08,0.578
681.1,0.577
680.12,0.575
679.14,0.574
678.16,0.573
677.18,0.571
676.1999999999999,0.570
675.22,0.570
674.24,0.571
673.26,0.572
672.28,0.572
671.3,0.572
670.3199999999999,0.571
669.34,0.569
668.36,0.569
667.38,0.567
666.4,0.568
665.42,0.569
664.4399999999999,0.569
663.46,0.570
662.48,0.570
661.5,0.571
660.52,0.573
659.54,0.573
658.56,0.574
657.58,0.574
656.6,0.577
655.62,0.579
654.64,0.583
653.66,0.584
652.68,0.592
651.6999999999999,0.596
650.72,0.600
649.74,0.605
648.76,0.611
647.78,0.624
646.8,0.629
645.8199999999999,0.634
644.84,0.644
643.86,0.654
642.88,0.663
641.9,0.669
640.92,0.675
639.9399999999999,0.683
638.96,0.695
637.98,0.703
637.0,0.712
636.02,0.720
635.04,0.727
634.06,0.742
633.08,0.751
632.1,0.763
631.12,0.781
630.14,0.797
629.16,0.807
628.18,0.819
627.2,0.832
626.22,0.844
625.24,0.851
624.26,0.861
623.28,0.869
622.3,0.874
621.3199999999999,0.877
620.34,0.876
619.36,0.874
618.38,0.870
617.4,0.862
616.42,0.854
615.4399999999999,0.851
614.46,0.846
613.48,0.841
612.5,0.835
611.52,0.832
610.54,0.831
609.56,0.833
608.58,0.832
607.6,0.832
606.62,0.832
605.64,0.833
604.66,0.835
603.68,0.835
602.7,0.835
601.72,0.836
600.74,0.835
599.76,0.836
598.78,0.836
597.8,0.833
596.8199999999999,0.832
595.84,0.830
594.86,0.828
593.88,0.827
592.9,0.828
591.92,0.827
590.9399999999999,0.828
589.96,0.830
588.98,0.833
588.0,0.835
587.02,0.841
586.04,0.844
585.06,0.846
584.08,0.856
583.1,0.869
582.12,0.880
581.14,0.892
580.16,0.903
579.18,0.913
578.2,0.921
577.22,0.930
576.24,0.938
575.26,0.948
574.28,0.961
573.3,0.975
572.3199999999999,0.988
571.34,1.000
570.36,1.000
569.38,0.995
568.4,0.990
567.42,0.985
566.4399999999999,0.982
565.46,0.976
564.48,0.970
563.5,0.963
562.52,0.956
561.54,0.948
560.56,0.941
559.58,0.932
558.6,0.926
557.62,0.920
556.64,0.915
555.66,0.912
554.68,0.907
553.7,0.905
552.72,0.905
551.74,0.905
550.76,0.903
549.78,0.902
548.8,0.903
547.8199999999999,0.905
546.84,0.909
545.86,0.910
544.88,0.911
543.9,0.912
542.92,0.914
541.9399999999999,0.914
540.96,0.917
539.98,0.917
539.0,0.919
538.02,0.921
537.04,0.924
536.06,0.925
535.08,0.929
534.1,0.931
533.12,0.934
532.14,0.939
531.16,0.942
530.18,0.946
529.2,0.950
528.22,0.953
527.24,0.958
526.26,0.960
525.28,0.960
524.3,0.960
523.3199999999999,0.960
522.34,0.958
521.36,0.956
520.38,0.952
519.4,0.948
518.42,0.944
517.4399999999999,0.937
516.46,0.933
515.48,0.928
514.5,0.925
513.52,0.920
512.54,0.915
511.56,0.908
510.58,0.901
509.59999999999997,0.892
508.62,0.880
507.64,0.862
506.65999999999997,0.844
505.68,0.820
504.7,0.794
503.71999999999997,0.764
502.74,0.729
501.76,0.691
500.78,0.648
499.8,0.600
498.82,0.551
497.84,0.501
496.86,0.456
495.88,0.417
494.9,0.390
493.92,0.376
492.94,0.372
491.96,0.371
490.98,0.370
490.0,0.370
489.02,0.369
488.03999999999996,0.369
487.06,0.368
486.08,0.368
485.09999999999997,0.367
484.12,0.367
483.14,0.367
482.15999999999997,0.366
481.18,0.366
480.2,0.365
479.21999999999997,0.365
478.24,0.363
477.26,0.363
476.28,0.362
475.3,0.362
474.32,0.359
473.34,0.359
472.36,0.358
471.38,0.356
470.4,0.353
469.42,0.353
468.44,0.352
467.46,0.351
466.48,0.350
465.5,0.350
464.52,0.349
463.53999999999996,0.348
462.56,0.348
461.58,0.347
460.59999999999997,0.342
459.62,0.342
458.64,0.340
457.65999999999997,0.338
456.68,0.337
455.7,0.336
454.71999999999997,0.334
453.74,0.333
452.76,0.331
451.78,0.331
450.8,0.330
449.82,0.329
448.84,0.328
447.86,0.328
446.88,0.327
445.9,0.326
444.92,0.325
443.94,0.325
442.96,0.323
441.98,0.322
441.0,0.321
440.02,0.320
439.03999999999996,0.320
438.06,0.320
437.08,0.320
436.09999999999997,0.320
435.12,0.319
434.14,0.320
433.15999999999997,0.321
432.18,0.324
431.2,0.327
430.21999999999997,0.330
429.24,0.332
428.26,0.333
427.28,0.333
426.3,0.333
425.32,0.334
424.34,0.332
423.36,0.330
422.38,0.327
421.4,0.323
420.42,0.317
419.44,0.309
418.46,0.302
417.48,0.294
416.5,0.284
415.52,0.277
414.54,0.269
413.56,0.264
412.58,0.257
411.59999999999997,0.251
410.62,0.242
409.64,0.235
408.65999999999997,0.225
407.68,0.217
406.7,0.209
405.71999999999997,0.200
404.74,0.191
403.76,0.184
402.78,0.177
401.8,0.173
400.82,0.167
399.84,0.162
398.86,0.157
397.88,0.152
396.9,0.150
395.92,0.147
394.94,0.142
393.96,0.138
392.98,0.135
392.0,0.132
391.02,0.132
390.04,0.128
389.06,0.126
388.08,0.124
387.09999999999997,0.120
386.12,0.120
385.14,0.118
384.15999999999997,0.117
383.18,0.117
382.2,0.117
381.21999999999997,0.116
380.24,0.115
