wavelength,amplitude
957.46,0.601
956.48,0.552
955.5,0.520
954.52,0.505
953.54,0.514
952.56,0.505
951.5799999999999,0.511
950.6,0.519
949.62,0.521
948.64,0.509
947.66,0.506
946.68,0.496
945.6999999999999,0.501
944.72,0.522
943.74,0.515
942.76,0.496
941.78,0.487
940.8,0.479
939.8199999999999,0.483
938.84,0.503
937.86,0.503
936.88,0.530
935.9,0.554
934.92,0.532
933.9399999999999,0.529
932.96,0.515
931.98,0.511
931.0,0.514
930.02,0.530
929.04,0.489
928.06,0.494
927.0799999999999,0.501
926.1,0.500
925.12,0.478
924.14,0.469
923.16,0.469
922.18,0.476
921.1999999999999,0.488
920.22,0.514
919.24,0.536
918.26,0.491
917.28,0.471
916.3,0.493
915.3199999999999,0.489
914.34,0.500
913.36,0.503
912.38,0.510
911.4,0.505
910.42,0.512
909.4399999999999,0.510
908.46,0.496
907.48,0.485
906.5,0.496
905.52,0.507
904.54,0.518
903.56,0.515
902.5799999999999,0.510
901.6,0.526
900.62,0.501
899.64,0.496
898.66,0.503
897.68,0.503
896.6999999999999,0.515
895.72,0.504
894.74,0.477
893.76,0.452
892.78,0.423
891.8,0.434
890.8199999999999,0.428
889.84,0.421
888.86,0.428
887.88,0.426
886.9,0.461
885.92,0.489
884.9399999999999,0.496
883.96,0.496
882.98,0.499
882.0,0.519
881.02,0.510
880.04,0.511
879.06,0.518
878.0799999999999,0.458
877.1,0.460
876.12,0.451
875.14,0.420
874.16,0.424
873.18,0.423
872.1999999999999,0.397
871.22,0.372
870.24,0.363
869.26,0.361
868.28,0.324
867.3,0.311
866.3199999999999,0.313
865.34,0.312
864.36,0.282
863.38,0.288
862.4,0.299
861.42,0.314
860.4399999999999,0.327
859.46,0.330
858.48,0.341
857.5,0.347
856.52,0.359
855.54,0.382
854.56,0.344
853.58,0.322
852.6,0.312
851.62,0.324
850.64,0.326
849.66,0.310
848.68,0.324
847.6999999999999,0.344
846.72,0.336
845.74,0.318
844.76,0.321
843.78,0.323
842.8,0.317
841.8199999999999,0.308
840.84,0.321
839.86,0.336
838.88,0.358
837.9,0.349
836.92,0.308
835.9399999999999,0.338
834.96,0.337
833.98,0.339
833.0,0.344
832.02,0.332
831.04,0.334
830.06,0.335
829.08,0.336
828.1,0.359
827.12,0.361
826.14,0.368
825.16,0.337
824.18,0.337
823.1999999999999,0.364
822.22,0.353
821.24,0.351
820.26,0.351
819.28,0.340
818.3,0.340
817.3199999999999,0.342
816.34,0.330
815.36,0.333
814.38,0.351
813.4,0.337
812.42,0.366
811.4399999999999,0.334
810.46,0.322
809.48,0.365
808.5,0.375
807.52,0.349
806.54,0.356
805.56,0.356
804.58,0.357
803.6,0.347
802.62,0.343
801.64,0.329
800.66,0.321
799.68,0.326
798.6999999999999,0.346
797.72,0.334
796.74,0.325
795.76,0.322
794.78,0.331
793.8,0.320
792.8199999999999,0.320
791.84,0.328
790.86,0.321
789.88,0.319
788.9,0.319
787.92,0.316
786.9399999999999,0.325
785.96,0.344
784.98,0.322
784.0,0.336
783.02,0.332
782.04,0.325
781.06,0.343
780.08,0.347
779.1,0.336
778.12,0.320
777.14,0.310
776.16,0.302
775.18,0.301
774.1999999999999,0.321
773.22,0.315
772.24,0.295
771.26,0.273
770.28,0.297
769.3,0.290
768.3199999999999,0.295
767.34,0.297
766.36,0.305
765.38,0.283
764.4,0.284
763.42,0.290
762.4399999999999,0.302
761.46,0.298
760.48,0.302
759.5,0.300
758.52,0.294
757.54,0.286
756.56,0.314
755.58,0.304
754.6,0.303
753.62,0.301
752.64,0.326
751.66,0.290
750.68,0.303
749.6999999999999,0.316
748.72,0.311
747.74,0.303
746.76,0.311
745.78,0.320
744.8,0.331
743.8199999999999,0.344
742.84,0.344
741.86,0.348
740.88,0.350
739.9,0.355
738.92,0.363
737.9399999999999,0.374
736.96,0.366
735.98,0.368
735.0,0.380
734.02,0.410
733.04,0.415
732.06,0.413
731.08,0.430
730.1,0.441
729.12,0.442
728.14,0.477
727.16,0.510
726.18,0.522
725.1999999999999,0.535
724.22,0.578
723.24,0.587
722.26,0.633
721.28,0.663
720.3,0.678
719.3199999999999,0.721
718.34,0.761
717.36,0.797
716.38,0.829
715.4,0.842
714.42,0.849
713.4399999999999,0.885
712.46,0.915
711.48,0.914
710.5,0.911
709.52,0.930
708.54,0.939
707.56,0.934
706.58,0.930
705.6,0.926
704.62,0.931
703.64,0.936
702.66,0.918
701.68,0.899
700.6999999999999,0.912
699.72,0.931
698.74,0.929
697.76,0.906
696.78,0.881
695.8,0.878
694.8199999999999,0.893
693.84,0.895
692.86,0.877
691.88,0.871
690.9,0.881
689.92,0.881
688.9399999999999,0.884
687.96,0.873
686.98,0.868
686.0,0.870
685.02,0.873
684.04,0.866
683.06,0.854
682.08,0.853
681.1,0.860
680.12,0.852
679.14,0.862
678.16,0.900
677.18,0.849
676.1999999999999,0.853
675.22,0.852
674.24,0.859
673.26,0.848
672.28,0.855
671.3,0.864
670.3199999999999,0.859
669.34,0.852
668.36,0.837
667.38,0.840
666.4,0.845
665.42,0.860
664.4399999999999,0.868
663.46,0.858
662.48,0.837
661.5,0.850
660.52,0.854
659.54,0.853
658.56,0.852
657.58,0.835
656.6,0.837
655.62,0.852
654.64,0.852
653.66,0.849
652.68,0.845
651.6999999999999,0.840
650.72,0.842
649.74,0.857
648.76,0.863
647.78,0.861
646.8,0.857
645.8199999999999,0.853
644.84,0.853
643.86,0.855
642.88,0.865
641.9,0.866
640.92,0.855
639.9399999999999,0.857
638.96,0.866
637.98,0.863
637.0,0.855
636.02,0.850
635.04,0.846
634.06,0.850
633.08,0.848
632.1,0.855
631.12,0.866
630.14,0.854
629.16,0.862
628.18,0.862
627.2,0.847
626.22,0.862
625.24,0.856
624.26,0.853
623.28,0.857
622.3,0.859
621.3199999999999,0.860
620.34,0.866
619.36,0.873
618.38,0.859
617.4,0.827
616.42,0.821
615.4399999999999,0.831
614.46,0.833
613.48,0.830
612.5,0.832
611.52,0.845
610.54,0.830
609.56,0.831
608.58,0.847
607.6,0.838
606.62,0.847
605.64,0.839
604.66,0.835
603.68,0.832
602.7,0.822
601.72,0.829
600.74,0.824
599.76,0.828
598.78,0.840
597.8,0.835
596.8199999999999,0.813
595.84,0.803
594.86,0.801
593.88,0.801
592.9,0.799
591.92,0.801
590.9399999999999,0.797
589.96,0.804
588.98,0.817
588.0,0.807
587.02,0.815
586.04,0.816
585.06,0.808
584.08,0.824
583.1,0.835
582.12,0.846
581.14,0.866
580.16,0.883
579.18,0.887
578.2,0.897
577.22,0.906
576.24,0.924
575.26,0.956
574.28,1.000
573.3,0.999
572.3199999999999,0.986
571.34,0.980
570.36,0.993
569.38,0.993
568.4,0.992
567.42,0.992
566.4399999999999,0.987
565.46,0.973
564.48,0.961
563.5,0.957
562.52,0.942
561.54,0.933
560.56,0.916
559.58,0.915
558.6,0.901
557.62,0.880
556.64,0.880
555.66,0.859
554.68,0.865
553.7,0.875
552.72,0.865
551.74,0.865
550.76,0.840
549.78,0.835
548.8,0.833
547.8199999999999,0.830
546.84,0.847
545.86,0.846
544.88,0.838
543.9,0.819
542.92,0.804
541.9399999999999,0.794
540.96,0.790
539.98,0.791
539.0,0.782
538.02,0.780
537.04,0.787
536.06,0.800
535.08,0.805
534.1,0.808
533.12,0.839
532.14,0.824
531.16,0.829
530.18,0.824
529.2,0.821
528.22,0.848
527.24,0.838
526.26,0.844
525.28,0.850
524.3,0.854
523.3199999999999,0.849
522.34,0.835
521.36,0.845
520.38,0.848
519.4,0.840
518.42,0.825
517.4399999999999,0.831
516.46,0.851
515.48,0.864
514.5,0.828
513.52,0.799
512.54,0.781
511.56,0.767
510.58,0.765
509.59999999999997,0.778
508.62,0.763
507.64,0.737
506.65999999999997,0.724
505.68,0.716
504.7,0.690
503.71999999999997,0.662
502.74,0.642
501.76,0.635
500.78,0.637
499.8,0.631
498.82,0.614
497.84,0.600
496.86,0.579
495.88,0.556
494.9,0.568
493.92,0.569
492.94,0.570
491.96,0.577
490.98,0.549
490.0,0.562
489.02,0.565
488.03999999999996,0.568
487.06,0.572
486.08,0.563
485.09999999999997,0.566
484.12,0.562
483.14,0.560
482.15999999999997,0.560
481.18,0.563
480.2,0.572
479.21999999999997,0.573
478.24,0.571
477.26,0.569
476.28,0.564
475.3,0.558
474.32,0.558
473.34,0.564
472.36,0.565
471.38,0.562
470.4,0.551
469.42,0.548
468.44,0.541
467.46,0.541
466.48,0.540
465.5,0.529
464.52,0.520
463.53999999999996,0.507
462.56,0.490
461.58,0.479
460.59999999999997,0.472
459.62,0.463
458.64,0.454
457.65999999999997,0.454
456.68,0.447
455.7,0.442
454.71999999999997,0.433
453.74,0.424
452.76,0.415
451.78,0.406
450.8,0.399
449.82,0.390
448.84,0.384
447.86,0.387
446.88,0.381
445.9,0.381
444.92,0.383
443.94,0.377
442.96,0.373
441.98,0.370
441.0,0.364
440.02,0.361
439.03999999999996,0.368
438.06,0.363
437.08,0.356
436.09999999999997,0.353
435.12,0.347
434.14,0.351
433.15999999999997,0.342
432.18,0.338
431.2,0.344
430.21999999999997,0.349
429.24,0.332
428.26,0.322
427.28,0.322
426.3,0.329
425.32,0.316
424.34,0.307
423.36,0.305
422.38,0.302
421.4,0.300
420.42,0.283
419.44,0.283
418.46,0.284
417.48,0.286
416.5,0.283
415.52,0.275
414.54,0.273
413.56,0.277
412.58,0.278
411.59999999999997,0.275
410.62,0.272
409.64,0.270
408.65999999999997,0.276
407.68,0.282
406.7,0.263
405.71999999999997,0.258
404.74,0.246
403.76,0.250
402.78,0.259
401.8,0.252
400.82,0.256
399.84,0.254
398.86,0.251
397.88,0.250
396.9,0.236
395.92,0.244
394.94,0.240
393.96,0.242
392.98,0.244
392.0,0.238
391.02,0.243
390.04,0.245
389.06,0.250
388.08,0.243
387.09999999999997,0.244
386.12,0.241
385.14,0.240
384.15999999999997,0.241
383.18,0.240
382.2,0.240
381.21999999999997,0.239
380.24,0.233
