wavelength,amplitude
999.22,0.069
998.28,0.065
997.34,0.064
996.4,0.062
995.46,0.061
994.52,0.060
993.58,0.058
992.64,0.056
991.7,0.055
990.76,0.053
989.82,0.052
988.88,0.051
987.94,0.049
987.0,0.048
986.06,0.047
985.12,0.045
984.18,0.045
983.24,0.044
982.3,0.043
981.36,0.043
980.42,0.041
979.48,0.041
978.54,0.040
977.6,0.040
976.66,0.038
975.72,0.038
974.78,0.037
973.84,0.036
972.9,0.035
971.96,0.035
971.02,0.035
970.08,0.034
969.14,0.033
968.2,0.032
967.26,0.031
966.32,0.030
965.38,0.030
964.44,0.029
963.5,0.028
962.56,0.028
961.62,0.027
960.68,0.027
959.74,0.026
958.8,0.026
957.86,0.025
956.92,0.024
955.98,0.024
955.04,0.024
954.1,0.023
953.16,0.023
952.22,0.023
951.28,0.022
950.34,0.022
949.4,0.022
948.46,0.021
947.52,0.021
946.58,0.020
945.64,0.020
944.7,0.020
943.76,0.020
942.82,0.020
941.88,0.020
940.94,0.020
940.0,0.020
939.06,0.019
938.12,0.019
937.18,0.019
936.24,0.018
935.3,0.019
934.36,0.019
933.42,0.019
932.48,0.019
931.54,0.019
930.6,0.018
929.66,0.017
928.72,0.018
927.78,0.018
926.84,0.018
925.9,0.018
924.96,0.019
924.02,0.019
923.08,0.019
922.14,0.019
921.2,0.019
920.26,0.020
919.32,0.020
918.38,0.019
917.44,0.019
916.5,0.019
915.56,0.020
914.62,0.020
913.68,0.020
912.74,0.020
911.8,0.020
910.86,0.020
909.92,0.020
908.98,0.020
908.04,0.020
907.1,0.020
906.16,0.021
905.22,0.021
904.28,0.021
903.34,0.022
902.4,0.022
901.46,0.022
900.52,0.022
899.58,0.022
898.64,0.022
897.7,0.023
896.76,0.023
895.82,0.023
894.88,0.023
893.94,0.023
893.0,0.023
892.06,0.023
891.12,0.024
890.18,0.024
889.24,0.025
888.3,0.026
887.36,0.026
886.42,0.027
885.48,0.027
884.54,0.028
883.6,0.028
882.66,0.028
881.72,0.028
880.78,0.028
879.84,0.029
878.9,0.029
877.96,0.030
877.02,0.030
876.08,0.031
875.14,0.033
874.2,0.033
873.26,0.033
872.32,0.033
871.38,0.034
870.44,0.035
869.5,0.035
868.56,0.035
867.62,0.035
866.68,0.035
865.74,0.037
864.8,0.037
863.86,0.037
862.92,0.038
861.98,0.039
861.04,0.040
860.1,0.041
859.16,0.041
858.22,0.042
857.28,0.043
856.34,0.043
855.4,0.044
854.46,0.046
853.52,0.047
852.58,0.048
851.64,0.048
850.7,0.049
849.76,0.051
848.82,0.051
847.88,0.052
846.94,0.052
846.0,0.054
845.06,0.054
844.12,0.056
843.18,0.056
842.24,0.058
841.3,0.059
840.36,0.061
839.42,0.062
838.48,0.063
837.54,0.064
836.6,0.066
835.66,0.069
834.72,0.072
833.78,0.074
832.84,0.076
831.9,0.078
830.96,0.080
830.02,0.082
829.08,0.084
828.14,0.087
827.2,0.091
826.26,0.093
825.32,0.095
824.38,0.099
823.44,0.104
822.5,0.112
821.56,0.120
820.62,0.133
819.68,0.149
818.74,0.161
817.8,0.169
816.86,0.175
815.92,0.179
814.98,0.183
814.04,0.190
813.1,0.194
812.16,0.200
811.22,0.203
810.28,0.201
809.34,0.194
808.4,0.187
807.46,0.182
806.52,0.179
805.58,0.176
804.64,0.175
803.7,0.174
802.76,0.174
801.82,0.174
800.88,0.174
799.94,0.176
799.0,0.177
798.06,0.178
797.12,0.180
796.18,0.182
795.24,0.185
794.3,0.190
793.36,0.192
792.42,0.196
791.48,0.201
790.54,0.206
789.6,0.212
788.66,0.217
787.72,0.220
786.78,0.226
785.84,0.232
784.9,0.236
783.96,0.242
783.02,0.249
782.08,0.254
781.14,0.259
780.2,0.261
779.26,0.264
778.32,0.270
777.38,0.275
776.44,0.280
775.5,0.284
774.56,0.288
773.62,0.292
772.68,0.297
771.74,0.304
770.8,0.309
769.86,0.314
768.92,0.323
767.98,0.330
767.04,0.336
766.1,0.346
765.16,0.352
764.22,0.362
763.28,0.368
762.34,0.375
761.4,0.382
760.46,0.392
759.52,0.400
758.58,0.408
757.64,0.416
756.7,0.423
755.76,0.431
754.82,0.436
753.88,0.444
752.94,0.448
752.0,0.452
751.06,0.459
750.12,0.465
749.18,0.470
748.24,0.478
747.3,0.483
746.36,0.490
745.42,0.496
744.48,0.502
743.54,0.508
742.6,0.516
741.66,0.525
740.72,0.535
739.78,0.544
738.84,0.552
737.9,0.562
736.96,0.568
736.02,0.578
735.08,0.584
734.14,0.592
733.2,0.601
732.26,0.608
731.32,0.612
730.38,0.619
729.44,0.622
728.5,0.629
727.56,0.632
726.62,0.635
725.68,0.639
724.74,0.643
723.8,0.646
722.86,0.649
721.92,0.650
720.98,0.653
720.04,0.658
719.1,0.665
718.16,0.669
717.22,0.673
716.28,0.676
715.34,0.682
714.4,0.685
713.46,0.690
712.52,0.694
711.58,0.697
710.64,0.702
709.7,0.701
708.76,0.703
707.82,0.704
706.88,0.706
705.94,0.711
705.0,0.714
704.06,0.717
703.12,0.721
702.18,0.726
701.24,0.731
700.3,0.735
699.36,0.738
698.42,0.741
697.48,0.747
696.54,0.749
695.6,0.751
694.66,0.751
693.72,0.751
692.78,0.752
691.84,0.753
690.9,0.753
689.96,0.755
689.02,0.754
688.08,0.757
687.14,0.759
686.2,0.761
685.26,0.763
684.32,0.766
683.38,0.772
682.44,0.776
681.5,0.778
680.56,0.781
679.62,0.787
678.68,0.792
677.74,0.797
676.8,0.801
675.86,0.805
674.92,0.810
673.98,0.813
673.04,0.818
672.1,0.824
671.16,0.825
670.22,0.828
669.28,0.830
668.34,0.832
667.4,0.834
666.46,0.837
665.52,0.838
664.58,0.839
663.64,0.839
662.7,0.841
661.76,0.841
660.82,0.840
659.88,0.840
658.94,0.840
658.0,0.837
657.06,0.837
656.12,0.834
655.18,0.833
654.24,0.833
653.3,0.833
652.36,0.836
651.42,0.838
650.48,0.841
649.54,0.845
648.6,0.848
647.66,0.854
646.72,0.859
645.78,0.865
644.84,0.871
643.9,0.877
642.96,0.884
642.02,0.890
641.08,0.894
640.14,0.899
639.2,0.906
638.26,0.911
637.32,0.918
636.38,0.922
635.44,0.926
634.5,0.931
633.56,0.936
632.62,0.939
631.68,0.943
630.74,0.948
629.8,0.952
628.86,0.957
627.92,0.961
626.98,0.965
626.04,0.970
625.1,0.975
624.16,0.978
623.22,0.981
622.28,0.985
621.34,0.988
620.4,0.991
619.46,0.995
618.52,0.995
617.58,0.995
616.64,0.997
615.7,0.999
614.76,0.999
613.82,1.000
612.88,0.999
611.94,0.998
611.0,0.996
610.06,0.995
609.12,0.992
608.18,0.989
607.24,0.984
606.3,0.980
605.36,0.975
604.42,0.968
603.48,0.961
602.54,0.952
601.6,0.943
600.66,0.934
599.72,0.925
598.78,0.915
597.84,0.906
596.9,0.897
595.96,0.889
595.02,0.882
594.08,0.875
593.14,0.868
592.2,0.863
591.26,0.859
590.32,0.854
589.38,0.849
588.44,0.843
587.5,0.839
586.56,0.834
585.62,0.830
584.68,0.827
583.74,0.829
582.8,0.833
581.86,0.838
580.92,0.841
579.98,0.846
579.04,0.851
578.1,0.856
577.16,0.861
576.22,0.867
575.28,0.872
574.34,0.878
573.4,0.884
572.46,0.890
571.52,0.896
570.58,0.895
569.64,0.885
568.7,0.874
567.76,0.863
566.82,0.852
565.88,0.843
564.94,0.833
564.0,0.823
563.06,0.814
562.12,0.805
561.18,0.797
560.24,0.788
559.3,0.780
558.36,0.772
557.42,0.765
556.48,0.760
555.54,0.759
554.6,0.757
553.66,0.755
552.72,0.752
551.78,0.751
550.84,0.748
549.9,0.745
548.96,0.742
548.02,0.739
547.08,0.738
546.14,0.736
545.2,0.733
544.26,0.730
543.32,0.728
542.38,0.726
541.44,0.724
540.5,0.720
539.56,0.717
538.62,0.712
537.68,0.707
536.74,0.702
535.8,0.695
534.86,0.688
533.92,0.683
532.98,0.677
532.04,0.672
531.1,0.666
530.16,0.661
529.22,0.656
528.28,0.650
527.34,0.644
526.4,0.639
525.46,0.633
524.52,0.627
523.58,0.621
522.64,0.615
521.7,0.610
520.76,0.607
519.82,0.603
518.88,0.601
517.94,0.599
517.0,0.597
516.06,0.594
515.12,0.592
514.18,0.589
513.24,0.587
512.3,0.583
511.36,0.581
510.42,0.579
509.48,0.574
508.54,0.570
507.6,0.567
506.66,0.563
505.72,0.559
504.78,0.555
503.84,0.551
502.9,0.547
501.96,0.543
501.02,0.539
500.08,0.534
499.14,0.530
498.2,0.526
497.26,0.522
496.32,0.517
495.38,0.511
494.44,0.505
493.5,0.498
492.56,0.489
491.62,0.478
490.68,0.467
489.74,0.457
488.8,0.446
487.86,0.435
486.92,0.425
485.98,0.414
485.04,0.404
484.1,0.396
483.16,0.389
482.22,0.382
481.28,0.378
480.34,0.374
479.4,0.371
478.46,0.369
477.52,0.367
476.58,0.364
475.64,0.361
474.7,0.357
473.76,0.353
472.82,0.346
471.88,0.339
470.94,0.331
470.0,0.320
469.06,0.307
468.12,0.292
467.18,0.275
466.24,0.259
465.3,0.242
464.36,0.225
463.42,0.214
462.48,0.209
461.54,0.205
460.6,0.202
459.66,0.200
458.72,0.198
457.78,0.196
456.84,0.195
455.9,0.195
454.96,0.194
454.02,0.194
453.08,0.193
452.14,0.192
451.2,0.190
450.26,0.189
449.32,0.187
448.38,0.185
447.44,0.182
446.5,0.179
445.56,0.176
444.62,0.173
443.68,0.171
442.74,0.169
441.8,0.168
440.86,0.166
439.92,0.163
438.98,0.159
438.04,0.154
437.1,0.149
436.16,0.145
435.22,0.141
434.28,0.137
433.34,0.135
432.4,0.131
431.46,0.130
430.52,0.127
429.58,0.125
428.64,0.124
427.7,0.123
426.76,0.122
425.82,0.121
424.88,0.120
423.94,0.119
423.0,0.119
422.06,0.118
421.12,0.117
420.18,0.116
419.24,0.116
418.3,0.116
417.36,0.115
416.42,0.115
415.48,0.115
414.54,0.114
413.6,0.113
412.66,0.113
411.72,0.112
410.78,0.113
409.84,0.113
408.9,0.112
407.96,0.112
407.02,0.111
406.08,0.111
405.14,0.110
404.2,0.110
403.26,0.110
402.32,0.109
401.38,0.109
400.44,0.109
399.5,0.109
398.56,0.109
397.62,0.110
396.68,0.110
395.74,0.111
394.8,0.112
393.86,0.111
392.92,0.111
391.98,0.109
391.04,0.108
390.1,0.107
389.16,0.105
388.22,0.105
387.28,0.105
386.34,0.104
385.4,0.104
384.46,0.104
383.52,0.104
382.58,0.104
381.64,0.104
380.7,0.104
