wavelength,amplitude
999.22,0.088
998.28,0.088
997.34,0.088
996.4,0.088
995.46,0.088
994.52,0.088
993.58,0.089
992.64,0.089
991.7,0.089
990.76,0.090
989.82,0.091
988.88,0.090
987.94,0.091
987.0,0.091
986.06,0.090
985.12,0.091
984.18,0.092
983.24,0.091
982.3,0.091
981.36,0.092
980.42,0.092
979.48,0.093
978.54,0.093
977.6,0.093
976.66,0.092
975.72,0.093
974.78,0.093
973.84,0.094
972.9,0.095
971.96,0.095
971.02,0.095
970.08,0.095
969.14,0.095
968.2,0.095
967.26,0.095
966.32,0.095
965.38,0.095
964.44,0.095
963.5,0.095
962.56,0.095
961.62,0.095
960.68,0.095
959.74,0.095
958.8,0.095
957.86,0.096
956.92,0.096
955.98,0.095
955.04,0.096
954.1,0.096
953.16,0.096
952.22,0.097
951.28,0.097
950.34,0.097
949.4,0.097
948.46,0.096
947.52,0.097
946.58,0.097
945.64,0.098
944.7,0.098
943.76,0.098
942.82,0.098
941.88,0.099
940.94,0.099
940.0,0.098
939.06,0.100
938.12,0.100
937.18,0.100
936.24,0.100
935.3,0.099
934.36,0.098
933.42,0.099
932.48,0.099
931.54,0.099
930.6,0.100
929.66,0.100
928.72,0.100
927.78,0.099
926.84,0.100
925.9,0.101
924.96,0.100
924.02,0.101
923.08,0.100
922.14,0.100
921.2,0.099
920.26,0.100
919.32,0.100
918.38,0.100
917.44,0.099
916.5,0.100
915.56,0.099
914.62,0.099
913.68,0.099
912.74,0.100
911.8,0.099
910.86,0.100
909.92,0.099
908.98,0.099
908.04,0.099
907.1,0.099
906.16,0.098
905.22,0.098
904.28,0.098
903.34,0.099
902.4,0.099
901.46,0.099
900.52,0.099
899.58,0.099
898.64,0.098
897.7,0.098
896.76,0.098
895.82,0.099
894.88,0.099
893.94,0.100
893.0,0.100
892.06,0.100
891.12,0.100
890.18,0.099
889.24,0.099
888.3,0.100
887.36,0.101
886.42,0.099
885.48,0.099
884.54,0.100
883.6,0.099
882.66,0.099
881.72,0.099
880.78,0.100
879.84,0.100
878.9,0.101
877.96,0.100
877.02,0.101
876.08,0.101
875.14,0.100
874.2,0.100
873.26,0.101
872.32,0.101
871.38,0.102
870.44,0.102
869.5,0.102
868.56,0.102
867.62,0.102
866.68,0.103
865.74,0.104
864.8,0.104
863.86,0.104
862.92,0.104
861.98,0.104
861.04,0.103
860.1,0.104
859.16,0.104
858.22,0.106
857.28,0.105
856.34,0.104
855.4,0.104
854.46,0.104
853.52,0.105
852.58,0.106
851.64,0.106
850.7,0.106
849.76,0.106
848.82,0.107
847.88,0.107
846.94,0.107
846.0,0.107
845.06,0.109
844.12,0.109
843.18,0.109
842.24,0.109
841.3,0.110
840.36,0.110
839.42,0.112
838.48,0.114
837.54,0.115
836.6,0.116
835.66,0.115
834.72,0.116
833.78,0.117
832.84,0.117
831.9,0.118
830.96,0.118
830.02,0.119
829.08,0.119
828.14,0.120
827.2,0.122
826.26,0.122
825.32,0.123
824.38,0.123
823.44,0.125
822.5,0.124
821.56,0.124
820.62,0.123
819.68,0.123
818.74,0.123
817.8,0.122
816.86,0.121
815.92,0.120
814.98,0.119
814.04,0.120
813.1,0.119
812.16,0.119
811.22,0.120
810.28,0.122
809.34,0.121
808.4,0.122
807.46,0.123
806.52,0.123
805.58,0.124
804.64,0.124
803.7,0.125
802.76,0.126
801.82,0.127
800.88,0.129
799.94,0.130
799.0,0.132
798.06,0.133
797.12,0.133
796.18,0.135
795.24,0.137
794.3,0.138
793.36,0.141
792.42,0.143
791.48,0.145
790.54,0.147
789.6,0.149
788.66,0.150
787.72,0.152
786.78,0.155
785.84,0.158
784.9,0.159
783.96,0.161
783.02,0.164
782.08,0.165
781.14,0.170
780.2,0.170
779.26,0.170
778.32,0.171
777.38,0.171
776.44,0.172
775.5,0.174
774.56,0.174
773.62,0.176
772.68,0.177
771.74,0.179
770.8,0.180
769.86,0.180
768.92,0.182
767.98,0.184
767.04,0.185
766.1,0.188
765.16,0.192
764.22,0.194
763.28,0.196
762.34,0.197
761.4,0.197
760.46,0.200
759.52,0.202
758.58,0.203
757.64,0.206
756.7,0.207
755.76,0.210
754.82,0.215
753.88,0.222
752.94,0.229
752.0,0.236
751.06,0.251
750.12,0.266
749.18,0.283
748.24,0.296
747.3,0.309
746.36,0.314
745.42,0.322
744.48,0.324
743.54,0.322
742.6,0.315
741.66,0.306
740.72,0.294
739.78,0.277
738.84,0.261
737.9,0.246
736.96,0.227
736.02,0.215
735.08,0.206
734.14,0.198
733.2,0.192
732.26,0.188
731.32,0.184
730.38,0.181
729.44,0.178
728.5,0.175
727.56,0.174
726.62,0.175
725.68,0.172
724.74,0.169
723.8,0.167
722.86,0.164
721.92,0.161
720.98,0.158
720.04,0.155
719.1,0.151
718.16,0.148
717.22,0.145
716.28,0.143
715.34,0.138
714.4,0.132
713.46,0.127
712.52,0.123
711.58,0.119
710.64,0.117
709.7,0.116
708.76,0.113
707.82,0.113
706.88,0.111
705.94,0.110
705.0,0.107
704.06,0.106
703.12,0.103
702.18,0.100
701.24,0.096
700.3,0.095
699.36,0.094
698.42,0.092
697.48,0.092
696.54,0.091
695.6,0.093
694.66,0.093
693.72,0.096
692.78,0.099
691.84,0.105
690.9,0.110
689.96,0.111
689.02,0.113
688.08,0.117
687.14,0.122
686.2,0.125
685.26,0.132
684.32,0.141
683.38,0.146
682.44,0.158
681.5,0.167
680.56,0.168
679.62,0.167
678.68,0.167
677.74,0.158
676.8,0.152
675.86,0.143
674.92,0.132
673.98,0.122
673.04,0.111
672.1,0.104
671.16,0.099
670.22,0.098
669.28,0.099
668.34,0.100
667.4,0.100
666.46,0.104
665.52,0.107
664.58,0.116
663.64,0.128
662.7,0.142
661.76,0.161
660.82,0.185
659.88,0.207
658.94,0.230
658.0,0.257
657.06,0.280
656.12,0.298
655.18,0.312
654.24,0.320
653.3,0.327
652.36,0.329
651.42,0.331
650.48,0.333
649.54,0.338
648.6,0.348
647.66,0.359
646.72,0.373
645.78,0.391
644.84,0.414
643.9,0.453
642.96,0.508
642.02,0.584
641.08,0.666
640.14,0.753
639.2,0.840
638.26,0.913
637.32,0.971
636.38,1.000
635.44,0.998
634.5,0.966
633.56,0.908
632.62,0.831
631.68,0.747
630.74,0.653
629.8,0.559
628.86,0.498
627.92,0.462
626.98,0.439
626.04,0.424
625.1,0.411
624.16,0.407
623.22,0.407
622.28,0.412
621.34,0.421
620.4,0.433
619.46,0.446
618.52,0.460
617.58,0.477
616.64,0.492
615.7,0.509
614.76,0.523
613.82,0.535
612.88,0.549
611.94,0.561
611.0,0.566
610.06,0.571
609.12,0.571
608.18,0.568
607.24,0.565
606.3,0.553
605.36,0.538
604.42,0.525
603.48,0.515
602.54,0.501
601.6,0.478
600.66,0.447
599.72,0.408
598.78,0.358
597.84,0.301
596.9,0.246
595.96,0.198
595.02,0.155
594.08,0.124
593.14,0.111
592.2,0.105
591.26,0.101
590.32,0.098
589.38,0.096
588.44,0.096
587.5,0.099
586.56,0.102
585.62,0.106
584.68,0.116
583.74,0.127
582.8,0.139
581.86,0.160
580.92,0.183
579.98,0.218
579.04,0.256
578.1,0.300
577.16,0.352
576.22,0.413
575.28,0.488
574.34,0.564
573.4,0.642
572.46,0.725
571.52,0.811
570.58,0.886
569.64,0.938
568.7,0.970
567.76,0.985
566.82,0.987
565.88,0.978
564.94,0.958
564.0,0.925
563.06,0.879
562.12,0.821
561.18,0.751
560.24,0.677
559.3,0.596
558.36,0.513
557.42,0.431
556.48,0.366
555.54,0.313
554.6,0.265
553.66,0.222
552.72,0.188
551.78,0.157
550.84,0.134
549.9,0.115
548.96,0.101
548.02,0.093
547.08,0.086
546.14,0.082
545.2,0.078
544.26,0.074
543.32,0.074
542.38,0.073
541.44,0.072
540.5,0.073
539.56,0.073
538.62,0.074
537.68,0.074
536.74,0.075
535.8,0.076
534.86,0.076
533.92,0.077
532.98,0.077
532.04,0.078
531.1,0.080
530.16,0.082
529.22,0.085
528.28,0.087
527.34,0.090
526.4,0.098
525.46,0.105
524.52,0.113
523.58,0.125
522.64,0.133
521.7,0.149
520.76,0.164
519.82,0.179
518.88,0.196
517.94,0.212
517.0,0.230
516.06,0.247
515.12,0.264
514.18,0.282
513.24,0.301
512.3,0.320
511.36,0.334
510.42,0.344
509.48,0.346
508.54,0.337
507.6,0.316
506.66,0.287
505.72,0.249
504.78,0.208
503.84,0.168
502.9,0.134
501.96,0.108
501.02,0.090
500.08,0.076
499.14,0.068
498.2,0.062
497.26,0.059
496.32,0.056
495.38,0.054
494.44,0.052
493.5,0.052
492.56,0.051
491.62,0.050
490.68,0.049
489.74,0.048
488.8,0.048
487.86,0.048
486.92,0.048
485.98,0.047
485.04,0.047
484.1,0.047
483.16,0.046
482.22,0.046
481.28,0.046
480.34,0.045
479.4,0.045
478.46,0.046
477.52,0.046
476.58,0.046
475.64,0.046
474.7,0.047
473.76,0.047
472.82,0.047
471.88,0.047
470.94,0.047
470.0,0.048
469.06,0.048
468.12,0.048
467.18,0.047
466.24,0.048
465.3,0.048
464.36,0.049
463.42,0.055
462.48,0.068
461.54,0.088
460.6,0.113
459.66,0.143
458.72,0.155
457.78,0.151
456.84,0.140
455.9,0.122
454.96,0.097
454.02,0.076
453.08,0.061
452.14,0.053
451.2,0.048
450.26,0.048
449.32,0.047
448.38,0.048
447.44,0.047
446.5,0.047
445.56,0.048
444.62,0.048
443.68,0.047
442.74,0.047
441.8,0.047
440.86,0.046
439.92,0.047
438.98,0.046
438.04,0.046
437.1,0.046
436.16,0.046
435.22,0.045
434.28,0.045
433.34,0.045
432.4,0.045
431.46,0.045
430.52,0.045
429.58,0.045
428.64,0.045
427.7,0.045
426.76,0.045
425.82,0.045
424.88,0.045
423.94,0.045
423.0,0.044
422.06,0.044
421.12,0.044
420.18,0.043
419.24,0.043
418.3,0.043
417.36,0.043
416.42,0.043
415.48,0.043
414.54,0.043
413.6,0.043
412.66,0.043
411.72,0.043
410.78,0.043
409.84,0.043
408.9,0.042
407.96,0.042
407.02,0.041
406.08,0.041
405.14,0.041
404.2,0.041
403.26,0.041
402.32,0.041
401.38,0.040
400.44,0.040
399.5,0.040
398.56,0.040
397.62,0.040
396.68,0.039
395.74,0.039
394.8,0.039
393.86,0.039
392.92,0.039
391.98,0.039
391.04,0.039
390.1,0.039
389.16,0.038
388.22,0.038
387.28,0.038
386.34,0.038
385.4,0.038
384.46,0.038
383.52,0.038
382.58,0.038
381.64,0.037
380.7,0.037
