wavelength,amplitude
963.83,0.191
962.8465,0.159
961.863,0.155
960.8795,0.187
959.8960000000001,0.212
958.9125,0.220
957.9290000000001,0.199
956.9455,0.196
955.962,0.192
954.9785,0.187
953.995,0.175
953.0115000000001,0.184
952.028,0.176
951.0445000000001,0.162
950.061,0.164
949.0775,0.159
948.094,0.157
947.1105,0.163
946.1270000000001,0.161
945.1435,0.175
944.1600000000001,0.181
943.1765,0.173
942.193,0.161
941.2095,0.169
940.226,0.193
939.2425000000001,0.189
938.259,0.173
937.2755000000001,0.168
936.292,0.184
935.3085000000001,0.166
934.325,0.167
933.3415,0.166
932.3580000000001,0.159
931.3745,0.154
930.3910000000001,0.164
929.4075,0.170
928.4240000000001,0.163
927.4405,0.160
926.457,0.162
925.4735000000001,0.167
924.49,0.169
923.5065000000001,0.172
922.523,0.178
921.5395000000001,0.189
920.556,0.183
919.5725,0.173
918.589,0.167
917.6055,0.174
916.6220000000001,0.172
915.6385,0.165
914.6550000000001,0.168
913.6715,0.185
912.688,0.167
911.7045,0.163
910.721,0.156
909.7375000000001,0.155
908.754,0.155
907.7705000000001,0.164
906.787,0.156
905.8035,0.161
904.82,0.163
903.8365,0.163
902.8530000000001,0.167
901.8695,0.161
900.8860000000001,0.163
899.9025,0.171
898.919,0.169
897.9355,0.172
896.952,0.157
895.9685000000001,0.160
894.985,0.169
894.0015000000001,0.168
893.018,0.183
892.0345000000001,0.175
891.051,0.167
890.0675,0.162
889.0840000000001,0.175
888.1005,0.176
887.1170000000001,0.162
886.1335,0.156
885.1500000000001,0.146
884.1665,0.151
883.183,0.152
882.1995000000001,0.156
881.216,0.165
880.2325000000001,0.169
879.249,0.162
878.2655000000001,0.149
877.282,0.147
876.2985,0.158
875.315,0.139
874.3315,0.131
873.3480000000001,0.140
872.3645,0.143
871.3810000000001,0.152
870.3975,0.157
869.414,0.162
868.4305,0.165
867.447,0.162
866.4635000000001,0.159
865.48,0.142
864.4965000000001,0.158
863.513,0.169
862.5295,0.181
861.546,0.189
860.5625,0.175
859.5790000000001,0.164
858.5955,0.158
857.6120000000001,0.144
856.6285,0.142
855.645,0.145
854.6615,0.160
853.678,0.161
852.6945000000001,0.152
851.711,0.144
850.7275000000001,0.150
849.744,0.144
848.7605,0.155
847.777,0.165
846.7935,0.139
845.8100000000001,0.142
844.8265,0.135
843.8430000000001,0.141
842.8595,0.148
841.8760000000001,0.155
840.8925,0.155
839.909,0.150
838.9255,0.148
837.942,0.152
836.9585000000001,0.146
835.975,0.145
834.9915000000001,0.151
834.008,0.170
833.0245,0.162
832.041,0.175
831.0575,0.161
830.0740000000001,0.160
829.0905,0.149
828.1070000000001,0.148
827.1235,0.139
826.14,0.133
825.1565,0.134
824.173,0.149
823.1895000000001,0.163
822.206,0.150
821.2225000000001,0.141
820.239,0.133
819.2555,0.144
818.272,0.157
817.2885,0.157
816.3050000000001,0.156
815.3215,0.156
814.3380000000001,0.148
813.3545,0.150
812.371,0.156
811.3875,0.166
810.404,0.170
809.4205000000001,0.154
808.437,0.152
807.4535000000001,0.146
806.47,0.145
805.4865,0.145
804.503,0.138
803.5195,0.142
802.5360000000001,0.145
801.5525,0.151
800.5690000000001,0.148
799.5855,0.146
798.6020000000001,0.154
797.6185,0.153
796.635,0.144
795.6515,0.154
794.668,0.158
793.6845000000001,0.172
792.701,0.184
791.7175000000001,0.191
790.734,0.197
789.7505,0.187
788.767,0.197
787.7835,0.206
786.8000000000001,0.208
785.8165,0.212
784.8330000000001,0.204
783.8495,0.200
782.866,0.187
781.8825,0.159
780.899,0.150
779.9155000000001,0.141
778.932,0.138
777.9485000000001,0.135
776.965,0.141
775.9815,0.146
774.998,0.139
774.0145,0.135
773.0310000000001,0.129
772.0475,0.122
771.0640000000001,0.130
770.0805,0.138
769.097,0.137
768.1135,0.146
767.13,0.144
766.1465000000001,0.138
765.163,0.123
764.1795000000001,0.119
763.196,0.124
762.2125,0.127
761.229,0.133
760.2455,0.133
759.2620000000001,0.140
758.2785,0.151
757.2950000000001,0.161
756.3115,0.163
755.328,0.153
754.3445,0.136
753.361,0.126
752.3775,0.118
751.394,0.118
750.4105000000001,0.115
749.427,0.126
748.4435000000001,0.123
747.46,0.124
746.4765,0.113
745.493,0.114
744.5095,0.116
743.5260000000001,0.114
742.5425,0.113
741.5590000000001,0.111
740.5755,0.107
739.592,0.111
738.6085,0.109
737.625,0.111
736.6415000000001,0.114
735.658,0.114
734.6745000000001,0.115
733.691,0.109
732.7075,0.115
731.724,0.115
730.7405,0.116
729.7570000000001,0.130
728.7735,0.124
727.7900000000001,0.118
726.8065,0.119
725.823,0.118
724.8395,0.129
723.856,0.132
722.8725000000001,0.131
721.889,0.132
720.9055000000001,0.142
719.922,0.140
718.9385,0.130
717.955,0.134
716.9715,0.142
715.988,0.150
715.0045,0.143
714.0210000000001,0.154
713.0375,0.161
712.054,0.163
711.0705,0.153
710.087,0.145
709.1035,0.140
708.12,0.138
707.1365000000001,0.139
706.153,0.148
705.1695000000001,0.130
704.186,0.126
703.2025,0.123
702.219,0.133
701.2355,0.134
700.2520000000001,0.127
699.2685,0.124
698.2850000000001,0.126
697.3015,0.129
696.318,0.137
695.3345,0.143
694.351,0.150
693.3675000000001,0.162
692.384,0.183
691.4005000000001,0.212
690.417,0.237
689.4335,0.253
688.45,0.265
687.4665,0.294
686.4830000000001,0.299
685.4995,0.323
684.5160000000001,0.342
683.5325,0.348
682.549,0.341
681.5655,0.340
680.582,0.340
679.5985000000001,0.333
678.615,0.339
677.6315000000001,0.336
676.648,0.337
675.6645,0.344
674.681,0.359
673.6975,0.390
672.714,0.400
671.7305,0.433
670.7470000000001,0.484
669.7635,0.540
668.78,0.625
667.7965,0.724
666.813,0.839
665.8295,0.927
664.846,0.969
663.8625000000001,1.000
662.879,0.994
661.8955000000001,0.986
660.912,0.963
659.9285,0.938
658.945,0.886
657.9615,0.807
656.9780000000001,0.702
655.9945,0.582
655.0110000000001,0.453
654.0275,0.378
653.044,0.338
652.0605,0.322
651.077,0.320
650.0935000000001,0.313
649.11,0.300
648.1265000000001,0.284
647.143,0.278
646.1595,0.281
645.176,0.282
644.1925,0.298
643.2090000000001,0.309
642.2255,0.316
641.2420000000001,0.324
640.2585,0.328
639.275,0.324
638.2915,0.334
637.308,0.344
636.3245000000001,0.362
635.341,0.358
634.3575000000001,0.360
633.374,0.358
632.3905,0.355
631.407,0.352
630.4235,0.340
629.44,0.322
628.4565,0.306
627.4730000000001,0.297
626.4895,0.281
625.506,0.271
624.5225,0.258
623.539,0.233
622.5555,0.208
621.572,0.182
620.5885000000001,0.171
619.605,0.155
618.6215,0.132
617.638,0.113
616.6545,0.102
615.671,0.089
614.6875,0.082
613.7040000000001,0.078
612.7205,0.084
611.7370000000001,0.079
610.7535,0.074
609.77,0.074
608.7865,0.072
607.803,0.072
606.8195000000001,0.071
605.836,0.075
604.8525000000001,0.078
603.869,0.076
602.8855,0.076
601.902,0.076
600.9185,0.077
599.9350000000001,0.079
598.9515,0.085
597.9680000000001,0.092
596.9845,0.103
596.001,0.109
595.0175,0.129
594.034,0.147
593.0505,0.182
592.067,0.217
591.0835000000001,0.260
590.1,0.324
589.1165,0.429
588.133,0.504
587.1495,0.546
586.166,0.565
585.1825,0.598
584.1990000000001,0.629
583.2155,0.640
582.232,0.641
581.2485,0.618
580.265,0.573
579.2815,0.503
578.298,0.445
577.3145000000001,0.398
576.331,0.339
575.3475,0.269
574.364,0.207
573.3805,0.167
572.397,0.138
571.4135,0.119
570.4300000000001,0.105
569.4465,0.090
568.4630000000001,0.073
567.4795,0.071
566.496,0.069
565.5125,0.068
564.529,0.063
563.5455000000001,0.062
562.562,0.064
561.5785000000001,0.059
560.595,0.056
559.6115,0.055
558.628,0.053
557.6445,0.051
556.6610000000001,0.051
555.6775,0.053
554.6940000000001,0.054
553.7105,0.054
552.727,0.057
551.7435,0.062
550.76,0.059
549.7765,0.056
548.793,0.054
547.8095000000001,0.055
546.826,0.051
545.8425,0.054
544.859,0.055
543.8755,0.054
542.892,0.056
541.9085,0.057
540.9250000000001,0.060
539.9415,0.059
538.958,0.067
537.9745,0.058
536.991,0.063
536.0075,0.062
535.024,0.061
534.0405000000001,0.066
533.057,0.070
532.0735,0.066
531.09,0.066
530.1065,0.071
529.123,0.083
528.1395,0.091
527.1560000000001,0.102
526.1725,0.097
525.1890000000001,0.097
524.2055,0.103
523.222,0.119
522.2385,0.120
521.255,0.123
520.2715000000001,0.122
519.288,0.113
518.3045000000001,0.099
517.321,0.104
516.3375,0.099
515.354,0.083
514.3705,0.076
513.3870000000001,0.069
512.4035,0.061
511.42,0.056
510.4365,0.053
509.45300000000003,0.050
508.46950000000004,0.049
507.48600000000005,0.056
506.5025,0.056
505.519,0.056
504.5355,0.053
503.552,0.054
502.56850000000003,0.050
501.58500000000004,0.046
500.60150000000004,0.044
499.618,0.049
498.6345,0.050
497.651,0.054
496.6675,0.054
495.684,0.056
494.70050000000003,0.051
493.71700000000004,0.050
492.7335,0.052
491.75,0.047
490.7665,0.052
489.783,0.052
488.7995,0.052
487.81600000000003,0.051
486.83250000000004,0.050
485.84900000000005,0.051
484.8655,0.050
483.882,0.048
482.8985,0.045
481.915,0.053
480.9315,0.048
479.94800000000004,0.047
478.96450000000004,0.048
477.981,0.049
476.9975,0.050
476.014,0.049
475.0305,0.047
474.047,0.050
473.06350000000003,0.052
472.08000000000004,0.048
471.0965,0.051
470.113,0.050
469.1295,0.054
468.146,0.057
467.1625,0.069
466.17900000000003,0.075
465.19550000000004,0.078
464.21200000000005,0.079
463.2285,0.082
462.245,0.072
461.2615,0.062
460.278,0.053
459.2945,0.048
458.31100000000004,0.045
457.32750000000004,0.047
456.344,0.044
455.3605,0.045
454.377,0.046
453.3935,0.046
452.41,0.046
451.42650000000003,0.045
450.44300000000004,0.047
449.4595,0.046
448.476,0.045
447.4925,0.044
446.509,0.042
445.5255,0.043
444.54200000000003,0.045
443.55850000000004,0.043
442.57500000000005,0.043
441.5915,0.042
440.608,0.044
439.6245,0.045
438.641,0.044
437.6575,0.040
436.67400000000004,0.042
435.69050000000004,0.044
434.707,0.050
433.7235,0.048
432.74,0.049
431.7565,0.047
430.773,0.045
429.78950000000003,0.042
428.80600000000004,0.039
427.8225,0.041
426.839,0.039
425.8555,0.042
424.872,0.046
423.8885,0.044
422.90500000000003,0.044
421.92150000000004,0.040
420.93800000000005,0.038
419.9545,0.037
418.971,0.038
417.9875,0.038
417.004,0.037
416.0205,0.039
415.03700000000003,0.039
414.05350000000004,0.040
413.07,0.041
412.0865,0.040
411.103,0.038
410.1195,0.039
409.136,0.039
408.15250000000003,0.039
407.16900000000004,0.041
406.1855,0.037
405.202,0.038
404.2185,0.038
403.235,0.038
402.2515,0.041
401.26800000000003,0.037
400.28450000000004,0.036
399.30100000000004,0.036
398.3175,0.038
397.334,0.039
396.3505,0.037
395.367,0.038
394.3835,0.038
393.40000000000003,0.038
392.41650000000004,0.036
391.433,0.035
390.4495,0.035
389.466,0.035
388.4825,0.038
387.499,0.035
386.51550000000003,0.038
385.53200000000004,0.042
384.5485,0.040
383.565,0.041
382.5815,0.041
381.598,0.040
380.6145,0.040
