wavelength,amplitude
953.0115000000001,1.000
952.028,0.899
951.0445000000001,0.881
950.061,0.881
949.0775,0.831
948.094,0.852
947.1105,0.800
946.1270000000001,0.811
945.1435,0.874
944.1600000000001,0.913
943.1765,0.929
942.193,0.915
941.2095,0.863
940.226,0.884
939.2425000000001,0.847
938.259,0.831
937.2755000000001,0.821
936.292,0.821
935.3085000000001,0.851
934.325,0.790
933.3415,0.807
932.3580000000001,0.821
931.3745,0.761
930.3910000000001,0.745
929.4075,0.776
928.4240000000001,0.818
927.4405,0.817
926.457,0.765
925.4735000000001,0.819
924.49,0.831
923.5065000000001,0.799
922.523,0.802
921.5395000000001,0.788
920.556,0.807
919.5725,0.743
918.589,0.755
917.6055,0.720
916.6220000000001,0.712
915.6385,0.831
914.6550000000001,0.785
913.6715,0.813
912.688,0.834
911.7045,0.833
910.721,0.733
909.7375000000001,0.762
908.754,0.774
907.7705000000001,0.769
906.787,0.761
905.8035,0.759
904.82,0.771
903.8365,0.744
902.8530000000001,0.772
901.8695,0.749
900.8860000000001,0.757
899.9025,0.730
898.919,0.712
897.9355,0.724
896.952,0.807
895.9685000000001,0.796
894.985,0.757
894.0015000000001,0.749
893.018,0.761
892.0345000000001,0.754
891.051,0.745
890.0675,0.722
889.0840000000001,0.733
888.1005,0.758
887.1170000000001,0.699
886.1335,0.774
885.1500000000001,0.772
884.1665,0.778
883.183,0.823
882.1995000000001,0.770
881.216,0.793
880.2325000000001,0.796
879.249,0.759
878.2655000000001,0.755
877.282,0.773
876.2985,0.778
875.315,0.809
874.3315,0.757
873.3480000000001,0.730
872.3645,0.691
871.3810000000001,0.709
870.3975,0.770
869.414,0.745
868.4305,0.712
867.447,0.767
866.4635000000001,0.757
865.48,0.788
864.4965000000001,0.758
863.513,0.765
862.5295,0.749
861.546,0.740
860.5625,0.753
859.5790000000001,0.761
858.5955,0.706
857.6120000000001,0.724
856.6285,0.709
855.645,0.728
854.6615,0.688
853.678,0.737
852.6945000000001,0.745
851.711,0.782
850.7275000000001,0.838
849.744,0.765
848.7605,0.720
847.777,0.708
846.7935,0.710
845.8100000000001,0.769
844.8265,0.786
843.8430000000001,0.835
842.8595,0.793
841.8760000000001,0.715
840.8925,0.802
839.909,0.730
838.9255,0.755
837.942,0.767
836.9585000000001,0.718
835.975,0.761
834.9915000000001,0.757
834.008,0.698
833.0245,0.676
832.041,0.668
831.0575,0.664
830.0740000000001,0.699
829.0905,0.663
828.1070000000001,0.654
827.1235,0.649
826.14,0.707
825.1565,0.718
824.173,0.717
823.1895000000001,0.704
822.206,0.691
821.2225000000001,0.714
820.239,0.698
819.2555,0.725
818.272,0.729
817.2885,0.744
816.3050000000001,0.741
815.3215,0.737
814.3380000000001,0.745
813.3545,0.702
812.371,0.704
811.3875,0.689
810.404,0.677
809.4205000000001,0.659
808.437,0.704
807.4535000000001,0.688
806.47,0.647
805.4865,0.632
804.503,0.655
803.5195,0.668
802.5360000000001,0.677
801.5525,0.644
800.5690000000001,0.626
799.5855,0.674
798.6020000000001,0.684
797.6185,0.683
796.635,0.709
795.6515,0.685
794.668,0.693
793.6845000000001,0.694
792.701,0.701
791.7175000000001,0.686
790.734,0.659
789.7505,0.612
788.767,0.651
787.7835,0.650
786.8000000000001,0.644
785.8165,0.614
784.8330000000001,0.644
783.8495,0.624
782.866,0.547
781.8825,0.528
780.899,0.558
779.9155000000001,0.602
778.932,0.587
777.9485000000001,0.573
776.965,0.562
775.9815,0.575
774.998,0.596
774.0145,0.739
773.0310000000001,0.742
772.0475,0.666
771.0640000000001,0.582
770.0805,0.560
769.097,0.554
768.1135,0.548
767.13,0.590
766.1465000000001,0.572
765.163,0.569
764.1795000000001,0.524
763.196,0.529
762.2125,0.535
761.229,0.560
760.2455,0.605
759.2620000000001,0.542
758.2785,0.543
757.2950000000001,0.562
756.3115,0.560
755.328,0.550
754.3445,0.546
753.361,0.548
752.3775,0.515
751.394,0.508
750.4105000000001,0.523
749.427,0.539
748.4435000000001,0.499
747.46,0.506
746.4765,0.527
745.493,0.536
744.5095,0.542
743.5260000000001,0.508
742.5425,0.514
741.5590000000001,0.488
740.5755,0.438
739.592,0.444
738.6085,0.477
737.625,0.516
736.6415000000001,0.504
735.658,0.522
734.6745000000001,0.506
733.691,0.505
732.7075,0.533
731.724,0.490
730.7405,0.510
729.7570000000001,0.479
728.7735,0.477
727.7900000000001,0.504
726.8065,0.501
725.823,0.492
724.8395,0.510
723.856,0.525
722.8725000000001,0.534
721.889,0.511
720.9055000000001,0.508
719.922,0.467
718.9385,0.516
717.955,0.470
716.9715,0.500
715.988,0.498
715.0045,0.500
714.0210000000001,0.503
713.0375,0.473
712.054,0.471
711.0705,0.476
710.087,0.485
709.1035,0.477
708.12,0.472
707.1365000000001,0.454
706.153,0.416
705.1695000000001,0.435
704.186,0.453
703.2025,0.449
702.219,0.445
701.2355,0.467
700.2520000000001,0.445
699.2685,0.456
698.2850000000001,0.454
697.3015,0.450
696.318,0.454
695.3345,0.470
694.351,0.448
693.3675000000001,0.438
692.384,0.449
691.4005000000001,0.461
690.417,0.463
689.4335,0.442
688.45,0.436
687.4665,0.475
686.4830000000001,0.467
685.4995,0.442
684.5160000000001,0.443
683.5325,0.438
682.549,0.461
681.5655,0.468
680.582,0.428
679.5985000000001,0.416
678.615,0.428
677.6315000000001,0.418
676.648,0.429
675.6645,0.468
674.681,0.472
673.6975,0.474
672.714,0.483
671.7305,0.507
670.7470000000001,0.475
669.7635,0.474
668.78,0.483
667.7965,0.441
666.813,0.439
665.8295,0.443
664.846,0.446
663.8625000000001,0.437
662.879,0.445
661.8955000000001,0.415
660.912,0.425
659.9285,0.427
658.945,0.410
657.9615,0.403
656.9780000000001,0.421
655.9945,0.424
655.0110000000001,0.424
654.0275,0.438
653.044,0.438
652.0605,0.410
651.077,0.413
650.0935000000001,0.422
649.11,0.425
648.1265000000001,0.431
647.143,0.427
646.1595,0.421
645.176,0.431
644.1925,0.439
643.2090000000001,0.449
642.2255,0.427
641.2420000000001,0.414
640.2585,0.400
639.275,0.411
638.2915,0.421
637.308,0.410
636.3245000000001,0.403
635.341,0.412
634.3575000000001,0.400
633.374,0.394
632.3905,0.396
631.407,0.393
630.4235,0.418
629.44,0.417
628.4565,0.394
627.4730000000001,0.413
626.4895,0.441
625.506,0.419
624.5225,0.395
623.539,0.389
622.5555,0.388
621.572,0.369
620.5885000000001,0.381
619.605,0.367
618.6215,0.395
617.638,0.395
616.6545,0.342
615.671,0.371
614.6875,0.369
613.7040000000001,0.372
612.7205,0.372
611.7370000000001,0.394
610.7535,0.398
609.77,0.397
608.7865,0.392
607.803,0.391
606.8195000000001,0.353
605.836,0.357
604.8525000000001,0.362
603.869,0.355
602.8855,0.356
601.902,0.357
600.9185,0.368
599.9350000000001,0.351
598.9515,0.349
597.9680000000001,0.351
596.9845,0.332
596.001,0.339
595.0175,0.343
594.034,0.332
593.0505,0.301
592.067,0.312
591.0835000000001,0.307
590.1,0.308
589.1165,0.349
588.133,0.323
587.1495,0.325
586.166,0.308
585.1825,0.308
584.1990000000001,0.313
583.2155,0.314
582.232,0.320
581.2485,0.340
580.265,0.346
579.2815,0.339
578.298,0.356
577.3145000000001,0.318
576.331,0.330
575.3475,0.329
574.364,0.343
573.3805,0.342
572.397,0.355
571.4135,0.359
570.4300000000001,0.334
569.4465,0.335
568.4630000000001,0.341
567.4795,0.354
566.496,0.344
565.5125,0.328
564.529,0.328
563.5455000000001,0.360
562.562,0.343
561.5785000000001,0.337
560.595,0.336
559.6115,0.352
558.628,0.311
557.6445,0.315
556.6610000000001,0.311
555.6775,0.320
554.6940000000001,0.307
553.7105,0.304
552.727,0.305
551.7435,0.342
550.76,0.327
549.7765,0.306
548.793,0.313
547.8095000000001,0.321
546.826,0.335
545.8425,0.310
544.859,0.335
543.8755,0.321
542.892,0.325
541.9085,0.329
540.9250000000001,0.318
539.9415,0.304
538.958,0.317
537.9745,0.316
536.991,0.308
536.0075,0.328
535.024,0.333
534.0405000000001,0.358
533.057,0.370
532.0735,0.354
531.09,0.337
530.1065,0.344
529.123,0.348
528.1395,0.360
527.1560000000001,0.362
526.1725,0.350
525.1890000000001,0.371
524.2055,0.398
523.222,0.411
522.2385,0.409
521.255,0.398
520.2715000000001,0.395
519.288,0.390
518.3045000000001,0.411
517.321,0.393
516.3375,0.407
515.354,0.378
514.3705,0.381
513.3870000000001,0.404
512.4035,0.409
511.42,0.413
510.4365,0.408
509.45300000000003,0.408
508.46950000000004,0.407
507.48600000000005,0.396
506.5025,0.395
505.519,0.404
504.5355,0.413
503.552,0.404
502.56850000000003,0.409
501.58500000000004,0.436
500.60150000000004,0.430
499.618,0.399
498.6345,0.394
497.651,0.392
496.6675,0.403
495.684,0.410
494.70050000000003,0.426
493.71700000000004,0.406
492.7335,0.424
491.75,0.424
490.7665,0.425
489.783,0.410
488.7995,0.379
487.81600000000003,0.398
486.83250000000004,0.390
485.84900000000005,0.404
484.8655,0.398
483.882,0.396
482.8985,0.408
481.915,0.405
480.9315,0.386
479.94800000000004,0.424
478.96450000000004,0.407
477.981,0.392
476.9975,0.390
476.014,0.377
475.0305,0.360
474.047,0.362
473.06350000000003,0.366
472.08000000000004,0.360
471.0965,0.383
470.113,0.377
469.1295,0.360
468.146,0.360
467.1625,0.364
466.17900000000003,0.354
465.19550000000004,0.324
464.21200000000005,0.332
463.2285,0.333
462.245,0.326
461.2615,0.331
460.278,0.304
459.2945,0.319
458.31100000000004,0.319
457.32750000000004,0.342
456.344,0.318
455.3605,0.297
454.377,0.292
453.3935,0.285
452.41,0.274
451.42650000000003,0.304
450.44300000000004,0.304
449.4595,0.307
448.476,0.303
447.4925,0.311
446.509,0.273
445.5255,0.265
444.54200000000003,0.261
443.55850000000004,0.273
442.57500000000005,0.273
441.5915,0.277
440.608,0.282
439.6245,0.282
438.641,0.280
437.6575,0.282
436.67400000000004,0.273
435.69050000000004,0.285
434.707,0.284
433.7235,0.279
432.74,0.284
431.7565,0.266
430.773,0.275
429.78950000000003,0.274
428.80600000000004,0.261
427.8225,0.256
426.839,0.246
425.8555,0.256
424.872,0.262
423.8885,0.266
422.90500000000003,0.266
421.92150000000004,0.244
420.93800000000005,0.239
419.9545,0.231
418.971,0.227
417.9875,0.231
417.004,0.225
416.0205,0.236
415.03700000000003,0.223
414.05350000000004,0.226
413.07,0.236
412.0865,0.232
411.103,0.223
410.1195,0.207
409.136,0.210
408.15250000000003,0.210
407.16900000000004,0.214
406.1855,0.212
405.202,0.210
404.2185,0.194
403.235,0.195
402.2515,0.191
401.26800000000003,0.184
400.28450000000004,0.199
399.30100000000004,0.203
398.3175,0.189
397.334,0.185
396.3505,0.186
395.367,0.209
394.3835,0.197
393.40000000000003,0.191
392.41650000000004,0.200
391.433,0.204
390.4495,0.198
389.466,0.188
388.4825,0.190
387.499,0.188
386.51550000000003,0.179
385.53200000000004,0.192
384.5485,0.188
383.565,0.184
382.5815,0.196
381.598,0.197
380.6145,0.191
