wavelength,amplitude
960.3877500000001,0.973
959.40425,0.979
958.42075,0.993
957.4372500000001,0.979
956.45375,0.975
955.4702500000001,0.973
954.48675,0.973
953.5032500000001,0.973
952.51975,0.972
951.53625,0.973
950.5527500000001,0.979
949.56925,0.979
948.5857500000001,0.979
947.60225,0.979
946.6187500000001,0.986
945.63525,0.979
944.65175,0.973
943.6682500000001,0.979
942.68475,0.986
941.7012500000001,0.986
940.71775,0.986
939.7342500000001,0.986
938.75075,0.979
937.76725,0.973
936.78375,0.979
935.80025,0.979
934.8167500000001,0.979
933.83325,0.979
932.8497500000001,0.979
931.86625,0.986
930.88275,0.979
929.89925,0.979
928.91575,0.979
927.9322500000001,0.979
926.94875,0.979
925.9652500000001,0.986
924.98175,0.986
923.99825,0.979
923.01475,0.973
922.03125,0.979
921.0477500000001,0.973
920.06425,0.975
919.0807500000001,0.979
918.09725,0.979
917.11375,0.979
916.13025,0.979
915.14675,0.979
914.1632500000001,0.973
913.17975,0.968
912.1962500000001,0.973
911.21275,0.973
910.2292500000001,0.973
909.24575,0.979
908.26225,0.979
907.2787500000001,0.986
906.29525,0.973
905.3117500000001,0.973
904.32825,0.973
903.3447500000001,0.973
902.36125,0.979
901.37775,0.986
900.39425,1.000
899.41075,0.984
898.4272500000001,0.979
897.44375,0.973
896.4602500000001,0.979
895.47675,0.973
894.49325,0.973
893.50975,0.972
892.52625,0.972
891.5427500000001,0.979
890.55925,0.986
889.5757500000001,0.986
888.59225,0.986
887.60875,0.979
886.62525,0.973
885.64175,0.979
884.6582500000001,0.979
883.67475,0.973
882.6912500000001,0.973
881.70775,0.973
880.72425,0.973
879.74075,0.979
878.75725,0.979
877.7737500000001,0.973
876.79025,0.968
875.8067500000001,0.973
874.82325,0.979
873.83975,0.979
872.85625,0.979
871.87275,0.972
870.8892500000001,0.973
869.90575,0.979
868.9222500000001,0.979
867.93875,0.972
866.9552500000001,0.972
865.97175,0.968
864.98825,0.973
864.0047500000001,0.973
863.02125,0.973
862.0377500000001,0.986
861.05425,0.986
860.0707500000001,0.986
859.08725,0.988
858.10375,0.980
857.12025,0.979
856.13675,0.979
855.1532500000001,0.979
854.16975,0.979
853.1862500000001,0.973
852.20275,0.973
851.21925,0.973
850.23575,0.972
849.25225,0.968
848.2687500000001,0.979
847.28525,0.973
846.3017500000001,0.973
845.31825,0.973
844.33475,0.968
843.35125,0.979
842.36775,0.989
841.3842500000001,0.989
840.40075,0.979
839.4172500000001,0.972
838.43375,0.973
837.45025,0.973
836.46675,0.973
835.48325,0.979
834.4997500000001,0.973
833.51625,0.973
832.5327500000001,0.973
831.54925,0.973
830.56575,0.973
829.58225,0.986
828.59875,0.986
827.6152500000001,0.986
826.63175,0.986
825.6482500000001,0.993
824.66475,0.979
823.6812500000001,0.979
822.69775,0.979
821.71425,0.979
820.7307500000001,0.973
819.74725,0.979
818.7637500000001,0.986
817.78025,0.986
816.7967500000001,0.979
815.81325,0.973
814.82975,0.973
813.84625,0.973
812.86275,0.973
811.8792500000001,0.973
810.89575,0.973
809.9122500000001,0.978
808.92875,0.974
807.94525,0.970
806.96175,0.961
805.97825,0.970
804.9947500000001,0.966
804.01125,0.962
803.0277500000001,0.958
802.04425,0.954
801.06075,0.949
800.07725,0.938
799.09375,0.931
798.1102500000001,0.927
797.12675,0.924
796.1432500000001,0.920
795.15975,0.922
794.17625,0.918
793.19275,0.910
792.20925,0.906
791.2257500000001,0.906
790.24225,0.903
789.2587500000001,0.901
788.27525,0.897
787.29175,0.894
786.30825,0.910
785.32475,0.912
784.3412500000001,0.908
783.35775,0.905
782.3742500000001,0.895
781.39075,0.898
780.40725,0.895
779.42375,0.881
778.44025,0.871
777.45675,0.868
776.47325,0.859
775.4897500000001,0.854
774.50625,0.851
773.5227500000001,0.848
772.53925,0.845
771.55575,0.840
770.57225,0.838
769.58875,0.838
768.6052500000001,0.830
767.62175,0.832
766.6382500000001,0.835
765.65475,0.825
764.67125,0.828
763.68775,0.819
762.70425,0.822
761.7207500000001,0.813
760.73725,0.816
759.7537500000001,0.821
758.77025,0.812
757.78675,0.810
756.80325,0.801
755.81975,0.804
754.8362500000001,0.796
753.85275,0.793
752.8692500000001,0.802
751.88575,0.788
750.90225,0.781
749.91875,0.783
748.93525,0.776
747.9517500000001,0.773
746.96825,0.771
745.9847500000001,0.768
745.00125,0.765
744.01775,0.763
743.03425,0.761
742.05075,0.759
741.0672500000001,0.760
740.08375,0.754
739.1002500000001,0.751
738.11675,0.749
737.13325,0.747
736.14975,0.748
735.16625,0.742
734.18275,0.742
733.19925,0.745
732.2157500000001,0.739
731.23225,0.733
730.2487500000001,0.735
729.26525,0.738
728.28175,0.730
727.29825,0.728
726.31475,0.723
725.3312500000001,0.722
724.34775,0.730
723.3642500000001,0.728
722.38075,0.721
721.39725,0.714
720.41375,0.717
719.43025,0.709
718.4467500000001,0.708
717.46325,0.711
716.4797500000001,0.708
715.49625,0.701
714.51275,0.701
713.52925,0.699
712.54575,0.705
711.5622500000001,0.699
710.57875,0.693
709.5952500000001,0.691
708.61175,0.693
707.62825,0.695
706.64475,0.706
705.66125,0.708
704.6777500000001,0.702
703.69425,0.686
702.7107500000001,0.690
701.72725,0.679
700.74375,0.674
699.76025,0.672
698.77675,0.670
697.7932500000001,0.672
696.80975,0.669
695.8262500000001,0.667
694.84275,0.667
693.85925,0.670
692.87575,0.680
691.89225,0.683
690.90875,0.680
689.92525,0.678
688.9417500000001,0.667
687.95825,0.676
686.97475,0.676
685.99125,0.683
685.00775,0.688
684.02425,0.685
683.04075,0.684
682.0572500000001,0.681
681.07375,0.682
680.0902500000001,0.683
679.10675,0.685
678.12325,0.683
677.13975,0.683
676.15625,0.676
675.1727500000001,0.679
674.18925,0.685
673.2057500000001,0.679
672.22225,0.682
671.23875,0.679
670.25525,0.676
669.27175,0.687
668.2882500000001,0.705
667.30475,0.721
666.3212500000001,0.723
665.33775,0.730
664.35425,0.755
663.37075,0.785
662.38725,0.811
661.4037500000001,0.821
660.42025,0.820
659.4367500000001,0.824
658.45325,0.813
657.46975,0.799
656.48625,0.803
655.50275,0.780
654.51925,0.750
653.53575,0.723
652.5522500000001,0.696
651.56875,0.663
650.58525,0.648
649.60175,0.644
648.61825,0.641
647.63475,0.638
646.65125,0.645
645.6677500000001,0.630
644.68425,0.629
643.70075,0.626
642.71725,0.623
641.73375,0.621
640.75025,0.623
639.76675,0.618
638.7832500000001,0.614
637.79975,0.622
636.8162500000001,0.610
635.83275,0.619
634.84925,0.625
633.86575,0.627
632.88225,0.625
631.8987500000001,0.616
630.91525,0.618
629.9317500000001,0.623
628.94825,0.622
627.96475,0.612
626.98125,0.611
625.99775,0.607
625.0142500000001,0.608
624.03075,0.605
623.0472500000001,0.591
622.06375,0.587
621.08025,0.580
620.09675,0.581
619.11325,0.569
618.1297500000001,0.561
617.14625,0.560
616.1627500000001,0.556
615.17925,0.558
614.19575,0.545
613.21225,0.538
612.22875,0.537
611.24525,0.535
610.26175,0.534
609.2782500000001,0.533
608.29475,0.535
607.31125,0.532
606.32775,0.527
605.34425,0.526
604.36075,0.527
603.37725,0.523
602.3937500000001,0.523
601.41025,0.522
600.42675,0.521
599.44325,0.522
598.45975,0.521
597.47625,0.520
596.49275,0.516
595.5092500000001,0.521
594.52575,0.519
593.5422500000001,0.521
592.55875,0.521
591.57525,0.524
590.59175,0.531
589.60825,0.532
588.6247500000001,0.538
587.64125,0.547
586.6577500000001,0.566
585.67425,0.603
584.69075,0.616
583.70725,0.625
582.72375,0.643
581.7402500000001,0.654
580.75675,0.663
579.7732500000001,0.662
578.78975,0.663
577.80625,0.658
576.82275,0.659
575.83925,0.640
574.8557500000001,0.629
573.87225,0.620
572.8887500000001,0.610
571.90525,0.602
570.92175,0.586
569.93825,0.574
568.95475,0.561
567.97125,0.547
566.98775,0.535
566.0042500000001,0.526
565.02075,0.516
564.03725,0.511
563.05375,0.506
562.07025,0.501
561.08675,0.495
560.10325,0.490
559.1197500000001,0.487
558.13625,0.482
557.15275,0.477
556.16925,0.473
555.18575,0.471
554.20225,0.470
553.21875,0.469
552.2352500000001,0.466
551.25175,0.467
550.26825,0.466
549.28475,0.467
548.30125,0.466
547.31775,0.463
546.33425,0.464
545.3507500000001,0.462
544.36725,0.461
543.3837500000001,0.466
542.40025,0.462
541.41675,0.459
540.43325,0.458
539.44975,0.456
538.4662500000001,0.455
537.48275,0.456
536.4992500000001,0.455
535.51575,0.455
534.53225,0.457
533.54875,0.456
532.56525,0.456
531.58175,0.455
530.59825,0.454
529.6147500000001,0.452
528.63125,0.454
527.64775,0.451
526.66425,0.450
525.68075,0.453
524.69725,0.455
523.71375,0.458
522.7302500000001,0.463
521.74675,0.458
520.76325,0.453
519.77975,0.459
518.79625,0.452
517.81275,0.449
516.82925,0.449
515.8457500000001,0.451
514.86225,0.447
513.87875,0.446
512.89525,0.445
511.91175000000004,0.441
510.92825000000005,0.434
509.94475,0.437
508.96125,0.436
507.97775,0.431
506.99425,0.433
506.01075000000003,0.430
505.02725000000004,0.433
504.04375000000005,0.429
503.06025,0.428
502.07675,0.430
501.09325,0.426
500.10975,0.428
499.12625,0.427
498.14275000000004,0.423
497.15925000000004,0.426
496.17575,0.425
495.19225,0.421
494.20875,0.420
493.22525,0.420
492.24175,0.416
491.25825000000003,0.418
490.27475000000004,0.417
489.29125000000005,0.416
488.30775,0.414
487.32425,0.414
486.34075,0.414
485.35725,0.413
484.37375000000003,0.414
483.39025000000004,0.416
482.40675000000005,0.412
481.42325,0.412
480.43975,0.411
479.45625,0.410
478.47275,0.412
477.48925,0.409
476.50575000000003,0.410
475.52225000000004,0.412
474.53875,0.410
473.55525,0.409
472.57175,0.405
471.58825,0.405
470.60475,0.404
469.62125000000003,0.406
468.63775000000004,0.403
467.65425000000005,0.403
466.67075,0.403
465.68725,0.402
464.70375,0.401
463.72025,0.401
462.73675000000003,0.401
461.75325000000004,0.402
460.76975000000004,0.403
459.78625,0.402
458.80275,0.402
457.81925,0.401
456.83575,0.393
455.85225,0.392
454.86875000000003,0.395
453.88525000000004,0.394
452.90175,0.392
451.91825,0.390
450.93475,0.391
449.95125,0.389
448.96775,0.389
447.98425000000003,0.389
447.00075000000004,0.387
446.01725000000005,0.389
445.03375,0.385
444.05025,0.385
443.06675,0.384
442.08325,0.384
441.09975000000003,0.383
440.11625000000004,0.381
439.13275000000004,0.382
438.14925,0.381
437.16575,0.379
436.18225,0.378
435.19875,0.380
434.21525,0.377
433.23175000000003,0.377
432.24825000000004,0.375
431.26475,0.377
430.28125,0.374
429.29775,0.376
428.31425,0.375
427.33075,0.375
426.34725000000003,0.375
425.36375000000004,0.373
424.38025,0.371
423.39675,0.370
422.41325,0.372
421.42975,0.373
420.44625,0.372
419.46275,0.370
418.47925000000004,0.371
417.49575000000004,0.371
416.51225,0.366
415.52875,0.368
414.54525,0.367
413.56175,0.366
412.57825,0.364
411.59475000000003,0.367
410.61125000000004,0.365
409.62775,0.364
408.64425,0.364
407.66075,0.361
406.67725,0.360
405.69375,0.362
404.71025000000003,0.361
403.72675000000004,0.359
402.74325,0.360
401.75975,0.360
400.77625,0.361
399.79275,0.359
398.80925,0.356
397.82575,0.356
396.84225000000004,0.355
395.85875000000004,0.355
394.87525,0.354
393.89175,0.353
392.90825,0.354
391.92475,0.352
390.94125,0.352
389.95775000000003,0.351
388.97425000000004,0.351
387.99075,0.350
387.00725,0.352
386.02375,0.352
385.04025,0.349
384.05675,0.349
383.07325000000003,0.348
382.08975000000004,0.348
381.10625,0.347
380.12275,0.346
